# Random transverse-field Ising model
# L=22, J=1=gamma, W_J=0.2, W=4.0
# High-T dynamical energy conductivity sigma^E(omega); via MCLM
# omega/J sigma^E(omega)

0.000000 0.005413
0.000250 0.005414
0.000500 0.005430
0.000750 0.005498
0.001000 0.005659
0.001250 0.005927
0.001500 0.006257
0.001750 0.006549
0.002000 0.006715
0.002250 0.006771
0.002500 0.006833
0.002750 0.007000
0.003000 0.007284
0.003250 0.007608
0.003500 0.007888
0.003750 0.008106
0.004000 0.008334
0.004250 0.008690
0.004500 0.009216
0.004750 0.009787
0.005000 0.010148
0.005250 0.010154
0.005500 0.009944
0.005750 0.009791
0.006000 0.009848
0.006250 0.010069
0.006500 0.010292
0.006750 0.010402
0.007000 0.010432
0.007250 0.010520
0.007500 0.010787
0.007750 0.011195
0.008000 0.011547
0.008250 0.011670
0.008500 0.011580
0.008750 0.011415
0.009000 0.011358
0.009250 0.011532
0.009500 0.011889
0.009750 0.012240
0.010000 0.012434
0.010250 0.012479
0.010500 0.012513
0.010750 0.012719
0.011000 0.013151
0.011250 0.013649
0.011500 0.013991
0.011750 0.014129
0.012000 0.014219
0.012250 0.014496
0.012500 0.015073
0.012750 0.015772
0.013000 0.016224
0.013250 0.016229
0.013500 0.015906
0.013750 0.015513
0.014000 0.015247
0.014250 0.015094
0.014500 0.014902
0.014750 0.014622
0.015000 0.014302
0.015250 0.013992
0.015500 0.013796
0.015750 0.013809
0.016000 0.013984
0.016250 0.014207
0.016500 0.014404
0.016750 0.014527
0.017000 0.014617
0.017250 0.014861
0.017500 0.015405
0.017750 0.016176
0.018000 0.016950
0.018250 0.017590
0.018500 0.018233
0.018750 0.019215
0.019000 0.020772
0.019250 0.022760
0.019500 0.024584
0.019750 0.025608
0.020000 0.025755
0.020250 0.025386
0.020500 0.024675
0.020750 0.023565
0.021000 0.022248
0.021250 0.021128
0.021500 0.020394
0.021750 0.020017
0.022000 0.020023
0.022250 0.020477
0.022500 0.021232
0.022750 0.021921
0.023000 0.022277
0.023250 0.022370
0.023500 0.022529
0.023750 0.023029
0.024000 0.023795
0.024250 0.024507
0.024500 0.024961
0.024750 0.025174
0.025000 0.025405
0.025250 0.026087
0.025500 0.027438
0.025750 0.029154
0.026000 0.030556
0.026250 0.031097
0.026500 0.030770
0.026750 0.030142
0.027000 0.029846
0.027250 0.029956
0.027500 0.030000
0.027750 0.029503
0.028000 0.028488
0.028250 0.027517
0.028500 0.027206
0.028750 0.027773
0.029000 0.028947
0.029250 0.030203
0.029500 0.031190
0.029750 0.031957
0.030000 0.032731
0.030250 0.033424
0.030500 0.033578
0.030750 0.033098
0.031000 0.032479
0.031250 0.032160
0.031500 0.032311
0.031750 0.033102
0.032000 0.034663
0.032250 0.036995
0.032500 0.039950
0.032750 0.042903
0.033000 0.044823
0.033250 0.045351
0.033500 0.045127
0.033750 0.044571
0.034000 0.043413
0.034250 0.041662
0.034500 0.040146
0.034750 0.039868
0.035000 0.041335
0.035250 0.044356
0.035500 0.047925
0.035750 0.050473
0.036000 0.051055
0.036250 0.050335
0.036500 0.049649
0.036750 0.049375
0.037000 0.048767
0.037250 0.047058
0.037500 0.044386
0.037750 0.041755
0.038000 0.040212
0.038250 0.040130
0.038500 0.041047
0.038750 0.041965
0.039000 0.042176
0.039250 0.041803
0.039500 0.041349
0.039750 0.041063
0.040000 0.040693
0.040250 0.039932
0.040500 0.038921
0.040750 0.037976
0.041000 0.037310
0.041250 0.036878
0.041500 0.036200
0.041750 0.034919
0.042000 0.033413
0.042250 0.032292
0.042500 0.031724
0.042750 0.031602
0.043000 0.031950
0.043250 0.032770
0.043500 0.033716
0.043750 0.034275
0.044000 0.034228
0.044250 0.033955
0.044500 0.034155
0.044750 0.035161
0.045000 0.036672
0.045250 0.038049
0.045500 0.038773
0.045750 0.038874
0.046000 0.039000
0.046250 0.039654
0.046500 0.040518
0.046750 0.040792
0.047000 0.039968
0.047250 0.038167
0.047500 0.036115
0.047750 0.034596
0.048000 0.033786
0.048250 0.033278
0.048500 0.032623
0.048750 0.031661
0.049000 0.030591
0.049250 0.029906
0.049500 0.029957
0.049750 0.030594
0.050000 0.031260
0.050250 0.031493
0.050500 0.031275
0.050750 0.030968
0.051000 0.031085
0.051250 0.031864
0.051500 0.032965
0.051750 0.033725
0.052000 0.033832
0.052250 0.033664
0.052500 0.033842
0.052750 0.034493
0.053000 0.035127
0.053250 0.035285
0.053500 0.034980
0.053750 0.034407
0.054000 0.033840
0.054250 0.033604
0.054500 0.033663
0.054750 0.033608
0.055000 0.033225
0.055250 0.032712
0.055500 0.032472
0.055750 0.032868
0.056000 0.033905
0.056250 0.035206
0.056500 0.036476
0.056750 0.037730
0.057000 0.038910
0.057250 0.039927
0.057500 0.041057
0.057750 0.042540
0.058000 0.044066
0.058250 0.045217
0.058500 0.046006
0.058750 0.046659
0.059000 0.047379
0.059250 0.048157
0.059500 0.048789
0.059750 0.049449
0.060000 0.050586
0.060250 0.052329
0.060500 0.054594
0.060750 0.057143
0.061000 0.059209
0.061250 0.060177
0.061500 0.060645
0.061750 0.061631
0.062000 0.063382
0.062250 0.065700
0.062500 0.068531
0.062750 0.071745
0.063000 0.074692
0.063250 0.076004
0.063500 0.074858
0.063750 0.072498
0.064000 0.070849
0.064250 0.070371
0.064500 0.070013
0.064750 0.068739
0.065000 0.066806
0.065250 0.065494
0.065500 0.065666
0.065750 0.066941
0.066000 0.068159
0.066250 0.068059
0.066500 0.065834
0.066750 0.062078
0.067000 0.058329
0.067250 0.055411
0.067500 0.053089
0.067750 0.050870
0.068000 0.048529
0.068250 0.046374
0.068500 0.045111
0.068750 0.045200
0.069000 0.046541
0.069250 0.048719
0.069500 0.051226
0.069750 0.053325
0.070000 0.054452
0.070250 0.054921
0.070500 0.055317
0.070750 0.055652
0.071000 0.055598
0.071250 0.054989
0.071500 0.054319
0.071750 0.054551
0.072000 0.056039
0.072250 0.057924
0.072500 0.058768
0.072750 0.057822
0.073000 0.055568
0.073250 0.053261
0.073500 0.051839
0.073750 0.051141
0.074000 0.050339
0.074250 0.048979
0.074500 0.047182
0.074750 0.045312
0.075000 0.043904
0.075250 0.043245
0.075500 0.043069
0.075750 0.042971
0.076000 0.042828
0.076250 0.042817
0.076500 0.043454
0.076750 0.045352
0.077000 0.048663
0.077250 0.052733
0.077500 0.056388
0.077750 0.058911
0.078000 0.060499
0.078250 0.061851
0.078500 0.063830
0.078750 0.066656
0.079000 0.069222
0.079250 0.069884
0.079500 0.068081
0.079750 0.064598
0.080000 0.060281
0.080250 0.055726
0.080500 0.051758
0.080750 0.048941
0.081000 0.047121
0.081250 0.045955
0.081500 0.045538
0.081750 0.046088
0.082000 0.047374
0.082250 0.048802
0.082500 0.049791
0.082750 0.050080
0.083000 0.050151
0.083250 0.050904
0.083500 0.052678
0.083750 0.054899
0.084000 0.056482
0.084250 0.056566
0.084500 0.055499
0.084750 0.054735
0.085000 0.055455
0.085250 0.057724
0.085500 0.060659
0.085750 0.063181
0.086000 0.064705
0.086250 0.065525
0.086500 0.066761
0.086750 0.069240
0.087000 0.072591
0.087250 0.075729
0.087500 0.077790
0.087750 0.078658
0.088000 0.078646
0.088250 0.077442
0.088500 0.074574
0.088750 0.070591
0.089000 0.066480
0.089250 0.063079
0.089500 0.061144
0.089750 0.060784
0.090000 0.061036
0.090250 0.060621
0.090500 0.059221
0.090750 0.057593
0.091000 0.056695
0.091250 0.056829
0.091500 0.057470
0.091750 0.058051
0.092000 0.058446
0.092250 0.058346
0.092500 0.057404
0.092750 0.056118
0.093000 0.055266
0.093250 0.054813
0.093500 0.054053
0.093750 0.052400
0.094000 0.050081
0.094250 0.048084
0.094500 0.047193
0.094750 0.047344
0.095000 0.047892
0.095250 0.048256
0.095500 0.048209
0.095750 0.048007
0.096000 0.048287
0.096250 0.049278
0.096500 0.050375
0.096750 0.050808
0.097000 0.050505
0.097250 0.050082
0.097500 0.050371
0.097750 0.051757
0.098000 0.053719
0.098250 0.055309
0.098500 0.056133
0.098750 0.056555
0.099000 0.057389
0.099250 0.059515
0.099500 0.063043
0.099750 0.066809
0.100000 0.069168
0.100250 0.069488
0.100500 0.068428
0.100750 0.067018
0.101000 0.065723
0.101250 0.064328
0.101500 0.062185
0.101750 0.058622
0.102000 0.054012
0.102250 0.049658
0.102500 0.046437
0.102750 0.044289
0.103000 0.042756
0.103250 0.041544
0.103500 0.040588
0.103750 0.040077
0.104000 0.040304
0.104250 0.041223
0.104500 0.042416
0.104750 0.043597
0.105000 0.044709
0.105250 0.045507
0.105500 0.045855
0.105750 0.046208
0.106000 0.047011
0.106250 0.048029
0.106500 0.048731
0.106750 0.049186
0.107000 0.050261
0.107250 0.052803
0.107500 0.056775
0.107750 0.060913
0.108000 0.063327
0.108250 0.063159
0.108500 0.061383
0.108750 0.059827
0.109000 0.059839
0.109250 0.061538
0.109500 0.063814
0.109750 0.065288
0.110000 0.065748
0.110250 0.066257
0.110500 0.067976
0.110750 0.071029
0.111000 0.074216
0.111250 0.076332
0.111500 0.077873
0.111750 0.080175
0.112000 0.083257
0.112250 0.085645
0.112500 0.086217
0.112750 0.085137
0.113000 0.082788
0.113250 0.079165
0.113500 0.074838
0.113750 0.071168
0.114000 0.068919
0.114250 0.067719
0.114500 0.066762
0.114750 0.065388
0.115000 0.063605
0.115250 0.062365
0.115500 0.062599
0.115750 0.064106
0.116000 0.065528
0.116250 0.065581
0.116500 0.064428
0.116750 0.063240
0.117000 0.062613
0.117250 0.062227
0.117500 0.061987
0.117750 0.062494
0.118000 0.064031
0.118250 0.066004
0.118500 0.067795
0.118750 0.069470
0.119000 0.070996
0.119250 0.071786
0.119500 0.071527
0.119750 0.070928
0.120000 0.071120
0.120250 0.072239
0.120500 0.073192
0.120750 0.073155
0.121000 0.072506
0.121250 0.071815
0.121500 0.071400
0.121750 0.071827
0.122000 0.073385
0.122250 0.075424
0.122500 0.077001
0.122750 0.077599
0.123000 0.077120
0.123250 0.076328
0.123500 0.076652
0.123750 0.078883
0.124000 0.082725
0.124250 0.087449
0.124500 0.092239
0.124750 0.096218
0.125000 0.099134
0.125250 0.101254
0.125500 0.102818
0.125750 0.104251
0.126000 0.105863
0.126250 0.108225
0.126500 0.112902
0.126750 0.121031
0.127000 0.131022
0.127250 0.137930
0.127500 0.136766
0.127750 0.127825
0.128000 0.116224
0.128250 0.106513
0.128500 0.100129
0.128750 0.096489
0.129000 0.094687
0.129250 0.094099
0.129500 0.094746
0.129750 0.097720
0.130000 0.104375
0.130250 0.114904
0.130500 0.127184
0.130750 0.136674
0.131000 0.139487
0.131250 0.136492
0.131500 0.131846
0.131750 0.127939
0.132000 0.123994
0.132250 0.118702
0.132500 0.112483
0.132750 0.107325
0.133000 0.105078
0.133250 0.105919
0.133500 0.108267
0.133750 0.110082
0.134000 0.110196
0.134250 0.108833
0.134500 0.107770
0.134750 0.108947
0.135000 0.112496
0.135250 0.116567
0.135500 0.119115
0.135750 0.119756
0.136000 0.120046
0.136250 0.121901
0.136500 0.125373
0.136750 0.128753
0.137000 0.131084
0.137250 0.132652
0.137500 0.132997
0.137750 0.131487
0.138000 0.129087
0.138250 0.127521
0.138500 0.128060
0.138750 0.130895
0.139000 0.135342
0.139250 0.141079
0.139500 0.147418
0.139750 0.151221
0.140000 0.147930
0.140250 0.136290
0.140500 0.120492
0.140750 0.105892
0.141000 0.095192
0.141250 0.088482
0.141500 0.084480
0.141750 0.081679
0.142000 0.079248
0.142250 0.077419
0.142500 0.077125
0.142750 0.078889
0.143000 0.082005
0.143250 0.084851
0.143500 0.086148
0.143750 0.085786
0.144000 0.084855
0.144250 0.084911
0.144500 0.086342
0.144750 0.087655
0.145000 0.086930
0.145250 0.083994
0.145500 0.080573
0.145750 0.078558
0.146000 0.078503
0.146250 0.079479
0.146500 0.080225
0.146750 0.080226
0.147000 0.079521
0.147250 0.078513
0.147500 0.077709
0.147750 0.077066
0.148000 0.076494
0.148250 0.076416
0.148500 0.077152
0.148750 0.078927
0.149000 0.082410
0.149250 0.087887
0.149500 0.093838
0.149750 0.097097
0.150000 0.095739
0.150250 0.091480
0.150500 0.087756
0.150750 0.086657
0.151000 0.088100
0.151250 0.090685
0.151500 0.093145
0.151750 0.094802
0.152000 0.095215
0.152250 0.094395
0.152500 0.092389
0.152750 0.089137
0.153000 0.085108
0.153250 0.080805
0.153500 0.076670
0.153750 0.073627
0.154000 0.072287
0.154250 0.071914
0.154500 0.070833
0.154750 0.068150
0.155000 0.064771
0.155250 0.062320
0.155500 0.061630
0.155750 0.062269
0.156000 0.063069
0.156250 0.063258
0.156500 0.062962
0.156750 0.062767
0.157000 0.063304
0.157250 0.064564
0.157500 0.065488
0.157750 0.064880
0.158000 0.062541
0.158250 0.059373
0.158500 0.056680
0.158750 0.055142
0.159000 0.054474
0.159250 0.054145
0.159500 0.054112
0.159750 0.054511
0.160000 0.055343
0.160250 0.056771
0.160500 0.058832
0.160750 0.060842
0.161000 0.061959
0.161250 0.062147
0.161500 0.061898
0.161750 0.061771
0.162000 0.062212
0.162250 0.063006
0.162500 0.063402
0.162750 0.062845
0.163000 0.061379
0.163250 0.059846
0.163500 0.059305
0.163750 0.060001
0.164000 0.061203
0.164250 0.061984
0.164500 0.061968
0.164750 0.061647
0.165000 0.062207
0.165250 0.064676
0.165500 0.069261
0.165750 0.075425
0.166000 0.082357
0.166250 0.088862
0.166500 0.093122
0.166750 0.094321
0.167000 0.093725
0.167250 0.092796
0.167500 0.091787
0.167750 0.089995
0.168000 0.086767
0.168250 0.082947
0.168500 0.080196
0.168750 0.078894
0.169000 0.077617
0.169250 0.074889
0.169500 0.071225
0.169750 0.068503
0.170000 0.068061
0.170250 0.069982
0.170500 0.073143
0.170750 0.075686
0.171000 0.076230
0.171250 0.075071
0.171500 0.073937
0.171750 0.074211
0.172000 0.075681
0.172250 0.076966
0.172500 0.077140
0.172750 0.076603
0.173000 0.076569
0.173250 0.078446
0.173500 0.083094
0.173750 0.090097
0.174000 0.097626
0.174250 0.103623
0.174500 0.107795
0.174750 0.111740
0.175000 0.116459
0.175250 0.120373
0.175500 0.120550
0.175750 0.115742
0.176000 0.107970
0.176250 0.100784
0.176500 0.096139
0.176750 0.093407
0.177000 0.090798
0.177250 0.087462
0.177500 0.083947
0.177750 0.081351
0.178000 0.080342
0.178250 0.080305
0.178500 0.079774
0.178750 0.077983
0.179000 0.075230
0.179250 0.072230
0.179500 0.069897
0.179750 0.068728
0.180000 0.068350
0.180250 0.068199
0.180500 0.068082
0.180750 0.067950
0.181000 0.068009
0.181250 0.068558
0.181500 0.069207
0.181750 0.069201
0.182000 0.068460
0.182250 0.067429
0.182500 0.066669
0.182750 0.066910
0.183000 0.068575
0.183250 0.071546
0.183500 0.075792
0.183750 0.081435
0.184000 0.087653
0.184250 0.092488
0.184500 0.094872
0.184750 0.095738
0.185000 0.095823
0.185250 0.094217
0.185500 0.090096
0.185750 0.084648
0.186000 0.080147
0.186250 0.077923
0.186500 0.077920
0.186750 0.079497
0.187000 0.081999
0.187250 0.084471
0.187500 0.086112
0.187750 0.087369
0.188000 0.089230
0.188250 0.091792
0.188500 0.094186
0.188750 0.095311
0.189000 0.095287
0.189250 0.096029
0.189500 0.099570
0.189750 0.106555
0.190000 0.116100
0.190250 0.126612
0.190500 0.137300
0.190750 0.149245
0.191000 0.163668
0.191250 0.178008
0.191500 0.185134
0.191750 0.179501
0.192000 0.163509
0.192250 0.144453
0.192500 0.128084
0.192750 0.116361
0.193000 0.108608
0.193250 0.103602
0.193500 0.100666
0.193750 0.099292
0.194000 0.099219
0.194250 0.100783
0.194500 0.104002
0.194750 0.107904
0.195000 0.111137
0.195250 0.112686
0.195500 0.112879
0.195750 0.113431
0.196000 0.115093
0.196250 0.116278
0.196500 0.114704
0.196750 0.109844
0.197000 0.103598
0.197250 0.098656
0.197500 0.096337
0.197750 0.096193
0.198000 0.097260
0.198250 0.099135
0.198500 0.101436
0.198750 0.103633
0.199000 0.106390
0.199250 0.111370
0.199500 0.119203
0.199750 0.128333
0.200000 0.135487
0.200250 0.136639
0.200500 0.134788
0.200750 0.132842
0.201000 0.131371
0.201250 0.129285
0.201500 0.125880
0.201750 0.121706
0.202000 0.117873
0.202250 0.115024
0.202500 0.113030
0.202750 0.111390
0.203000 0.109776
0.203250 0.108232
0.203500 0.106993
0.203750 0.106201
0.204000 0.105794
0.204250 0.105590
0.204500 0.105445
0.204750 0.105346
0.205000 0.105369
0.205250 0.105595
0.205500 0.106030
0.205750 0.106608
0.206000 0.107239
0.206250 0.107868
0.206500 0.108489
0.206750 0.109126
0.207000 0.109800
0.207250 0.110519
0.207500 0.111279
0.207750 0.112080
0.208000 0.112929
0.208250 0.113839
0.208500 0.114813
0.208750 0.115848
0.209000 0.116929
0.209250 0.118043
0.209500 0.119186
0.209750 0.120358
0.210000 0.121566
0.210250 0.122812
0.210500 0.124097
0.210750 0.125420
0.211000 0.126785
0.211250 0.128195
0.211500 0.129653
0.211750 0.131156
0.212000 0.132697
0.212250 0.134266
0.212500 0.135852
0.212750 0.137447
0.213000 0.139049
0.213250 0.140661
0.213500 0.142290
0.213750 0.143946
0.214000 0.145640
0.214250 0.147381
0.214500 0.149174
0.214750 0.151013
0.215000 0.152886
0.215250 0.154768
0.215500 0.156625
0.215750 0.158418
0.216000 0.160105
0.216250 0.161646
0.216500 0.163009
0.216750 0.164169
0.217000 0.165113
0.217250 0.165838
0.217500 0.166353
0.217750 0.166675
0.218000 0.166824
0.218250 0.166825
0.218500 0.166698
0.218750 0.166460
0.219000 0.166122
0.219250 0.165689
0.219500 0.165162
0.219750 0.164539
0.220000 0.163813
0.220250 0.162983
0.220500 0.162047
0.220750 0.161010
0.221000 0.159881
0.221250 0.158673
0.221500 0.157406
0.221750 0.156101
0.222000 0.154782
0.222250 0.153471
0.222500 0.152192
0.222750 0.150966
0.223000 0.149808
0.223250 0.148735
0.223500 0.147756
0.223750 0.146878
0.224000 0.146105
0.224250 0.145440
0.224500 0.144880
0.224750 0.144422
0.225000 0.144064
0.225250 0.143799
0.225500 0.143621
0.225750 0.143525
0.226000 0.143505
0.226250 0.143553
0.226500 0.143664
0.226750 0.143831
0.227000 0.144048
0.227250 0.144310
0.227500 0.144609
0.227750 0.144937
0.228000 0.145289
0.228250 0.145656
0.228500 0.146029
0.228750 0.146399
0.229000 0.146757
0.229250 0.147093
0.229500 0.147398
0.229750 0.147662
0.230000 0.147878
0.230250 0.148037
0.230500 0.148136
0.230750 0.148169
0.231000 0.148134
0.231250 0.148033
0.231500 0.147865
0.231750 0.147636
0.232000 0.147349
0.232250 0.147012
0.232500 0.146632
0.232750 0.146216
0.233000 0.145773
0.233250 0.145311
0.233500 0.144837
0.233750 0.144360
0.234000 0.143886
0.234250 0.143422
0.234500 0.142972
0.234750 0.142543
0.235000 0.142138
0.235250 0.141759
0.235500 0.141411
0.235750 0.141095
0.236000 0.140811
0.236250 0.140561
0.236500 0.140345
0.236750 0.140163
0.237000 0.140013
0.237250 0.139895
0.237500 0.139808
0.237750 0.139748
0.238000 0.139716
0.238250 0.139708
0.238500 0.139724
0.238750 0.139759
0.239000 0.139814
0.239250 0.139886
0.239500 0.139972
0.239750 0.140073
0.240000 0.140186
0.240250 0.140311
0.240500 0.140447
0.240750 0.140594
0.241000 0.140751
0.241250 0.140918
0.241500 0.141097
0.241750 0.141287
0.242000 0.141489
0.242250 0.141704
0.242500 0.141933
0.242750 0.142177
0.243000 0.142436
0.243250 0.142710
0.243500 0.143001
0.243750 0.143309
0.244000 0.143633
0.244250 0.143975
0.244500 0.144332
0.244750 0.144706
0.245000 0.145094
0.245250 0.145496
0.245500 0.145911
0.245750 0.146337
0.246000 0.146773
0.246250 0.147218
0.246500 0.147668
0.246750 0.148123
0.247000 0.148581
0.247250 0.149040
0.247500 0.149498
0.247750 0.149954
0.248000 0.150405
0.248250 0.150851
0.248500 0.151290
0.248750 0.151721
0.249000 0.152144
0.249250 0.152557
0.249500 0.152960
0.249750 0.153352
0.250000 0.153734
0.250250 0.154105
0.250500 0.154466
0.250750 0.154816
0.251000 0.155157
0.251250 0.155488
0.251500 0.155810
0.251750 0.156124
0.252000 0.156430
0.252250 0.156729
0.252500 0.157022
0.252750 0.157309
0.253000 0.157591
0.253250 0.157869
0.253500 0.158142
0.253750 0.158413
0.254000 0.158680
0.254250 0.158945
0.254500 0.159208
0.254750 0.159470
0.255000 0.159730
0.255250 0.159989
0.255500 0.160247
0.255750 0.160504
0.256000 0.160761
0.256250 0.161018
0.256500 0.161274
0.256750 0.161531
0.257000 0.161787
0.257250 0.162044
0.257500 0.162301
0.257750 0.162558
0.258000 0.162816
0.258250 0.163074
0.258500 0.163333
0.258750 0.163593
0.259000 0.163853
0.259250 0.164114
0.259500 0.164376
0.259750 0.164639
0.260000 0.164903
0.260250 0.165167
0.260500 0.165433
0.260750 0.165699
0.261000 0.165966
0.261250 0.166233
0.261500 0.166501
0.261750 0.166769
0.262000 0.167037
0.262250 0.167304
0.262500 0.167572
0.262750 0.167838
0.263000 0.168103
0.263250 0.168367
0.263500 0.168629
0.263750 0.168888
0.264000 0.169146
0.264250 0.169400
0.264500 0.169651
0.264750 0.169899
0.265000 0.170142
0.265250 0.170381
0.265500 0.170616
0.265750 0.170846
0.266000 0.171071
0.266250 0.171290
0.266500 0.171504
0.266750 0.171712
0.267000 0.171914
0.267250 0.172110
0.267500 0.172300
0.267750 0.172484
0.268000 0.172662
0.268250 0.172834
0.268500 0.173000
0.268750 0.173159
0.269000 0.173313
0.269250 0.173462
0.269500 0.173605
0.269750 0.173742
0.270000 0.173875
0.270250 0.174002
0.270500 0.174125
0.270750 0.174244
0.271000 0.174359
0.271250 0.174471
0.271500 0.174579
0.271750 0.174684
0.272000 0.174786
0.272250 0.174886
0.272500 0.174984
0.272750 0.175080
0.273000 0.175176
0.273250 0.175270
0.273500 0.175363
0.273750 0.175456
0.274000 0.175550
0.274250 0.175643
0.274500 0.175738
0.274750 0.175833
0.275000 0.175929
0.275250 0.176027
