# Random transverse-field Ising model
# L=22, J=1=gamma, W_J=0.2, W=1.5
# High-T dynamical energy conductivity sigma^E(omega); via MCLM
# omega/J sigma^E(omega)

0.000000 1.037947
0.000500 1.038239
0.001000 1.039086
0.001500 1.040406
0.002000 1.042070
0.002500 1.043925
0.003000 1.045811
0.003500 1.047575
0.004000 1.049085
0.004500 1.050243
0.005000 1.050980
0.005500 1.051262
0.006000 1.051089
0.006500 1.050494
0.007000 1.049544
0.007500 1.048342
0.008000 1.047020
0.008500 1.045738
0.009000 1.044664
0.009500 1.043957
0.010000 1.043753
0.010500 1.044142
0.011000 1.045158
0.011500 1.046772
0.012000 1.048898
0.012500 1.051399
0.013000 1.054108
0.013500 1.056843
0.014000 1.059424
0.014500 1.061696
0.015000 1.063531
0.015500 1.064842
0.016000 1.065580
0.016500 1.065746
0.017000 1.065382
0.017500 1.064578
0.018000 1.063465
0.018500 1.062209
0.019000 1.060998
0.019500 1.060024
0.020000 1.059457
0.020500 1.059432
0.021000 1.060026
0.021500 1.061254
0.022000 1.063058
0.022500 1.065324
0.023000 1.067891
0.023500 1.070568
0.024000 1.073160
0.024500 1.075486
0.025000 1.077388
0.025500 1.078750
0.026000 1.079497
0.026500 1.079599
0.027000 1.079072
0.027500 1.077979
0.028000 1.076428
0.028500 1.074569
0.029000 1.072581
0.029500 1.070663
0.030000 1.069013
0.030500 1.067807
0.031000 1.067179
0.031500 1.067204
0.032000 1.067893
0.032500 1.069189
0.033000 1.070978
0.033500 1.073102
0.034000 1.075383
0.034500 1.077638
0.035000 1.079701
0.035500 1.081431
0.036000 1.082729
0.036500 1.083532
0.037000 1.083819
0.037500 1.083611
0.038000 1.082969
0.038500 1.081992
0.039000 1.080816
0.039500 1.079604
0.040000 1.078533
0.040500 1.077778
0.041000 1.077489
0.041500 1.077773
0.042000 1.078682
0.042500 1.080203
0.043000 1.082260
0.043500 1.084723
0.044000 1.087427
0.044500 1.090187
0.045000 1.092819
0.045500 1.095158
0.046000 1.097071
0.046500 1.098459
0.047000 1.099265
0.047500 1.099474
0.048000 1.099111
0.048500 1.098247
0.049000 1.096992
0.049500 1.095496
0.050000 1.093937
0.050500 1.092504
0.051000 1.091382
0.051500 1.090727
0.052000 1.090649
0.052500 1.091195
0.053000 1.092344
0.053500 1.094012
0.054000 1.096056
0.054500 1.098301
0.055000 1.100550
0.055500 1.102615
0.056000 1.104326
0.056500 1.105550
0.057000 1.106195
0.057500 1.106217
0.058000 1.105618
0.058500 1.104452
0.059000 1.102819
0.059500 1.100862
0.060000 1.098761
0.060500 1.096719
0.061000 1.094940
0.061500 1.093614
0.062000 1.092891
0.062500 1.092866
0.063000 1.093568
0.063500 1.094956
0.064000 1.096928
0.064500 1.099330
0.065000 1.101981
0.065500 1.104689
0.066000 1.107272
0.066500 1.109573
0.067000 1.111468
0.067500 1.112874
0.068000 1.113746
0.068500 1.114082
0.069000 1.113921
0.069500 1.113342
0.070000 1.112466
0.070500 1.111450
0.071000 1.110472
0.071500 1.109718
0.072000 1.109360
0.072500 1.109538
0.073000 1.110337
0.073500 1.111777
0.074000 1.113811
0.074500 1.116331
0.075000 1.119179
0.075500 1.122168
0.076000 1.125101
0.076500 1.127797
0.077000 1.130101
0.077500 1.131894
0.078000 1.133104
0.078500 1.133701
0.079000 1.133703
0.079500 1.133171
0.080000 1.132209
0.080500 1.130959
0.081000 1.129593
0.081500 1.128299
0.082000 1.127263
0.082500 1.126645
0.083000 1.126564
0.083500 1.127082
0.084000 1.128191
0.084500 1.129820
0.085000 1.131842
0.085500 1.134092
0.086000 1.136383
0.086500 1.138533
0.087000 1.140377
0.087500 1.141780
0.088000 1.142648
0.088500 1.142926
0.089000 1.142605
0.089500 1.141717
0.090000 1.140340
0.090500 1.138597
0.091000 1.136647
0.091500 1.134683
0.092000 1.132909
0.092500 1.131521
0.093000 1.130688
0.093500 1.130528
0.094000 1.131096
0.094500 1.132373
0.095000 1.134271
0.095500 1.136642
0.096000 1.139299
0.096500 1.142032
0.097000 1.144636
0.097500 1.146927
0.098000 1.148756
0.098500 1.150019
0.099000 1.150658
0.099500 1.150667
0.100000 1.150088
0.100500 1.149014
0.101000 1.147579
0.101500 1.145957
0.102000 1.144347
0.102500 1.142956
0.103000 1.141978
0.103500 1.141569
0.104000 1.141832
0.104500 1.142803
0.105000 1.144446
0.105500 1.146656
0.106000 1.149276
0.106500 1.152115
0.107000 1.154970
0.107500 1.157649
0.108000 1.159988
0.108500 1.161862
0.109000 1.163192
0.109500 1.163949
0.110000 1.164150
0.110500 1.163860
0.111000 1.163187
0.111500 1.162277
0.112000 1.161311
0.112500 1.160484
0.113000 1.159993
0.113500 1.160012
0.114000 1.160673
0.114500 1.162048
0.115000 1.164138
0.115500 1.166875
0.116000 1.170124
0.116500 1.173701
0.117000 1.177399
0.117500 1.181002
0.118000 1.184313
0.118500 1.187169
0.119000 1.189448
0.119500 1.191076
0.120000 1.192028
0.120500 1.192325
0.121000 1.192036
0.121500 1.191275
0.122000 1.190199
0.122500 1.188995
0.123000 1.187871
0.123500 1.187038
0.124000 1.186682
0.124500 1.186949
0.125000 1.187925
0.125500 1.189628
0.126000 1.192005
0.126500 1.194941
0.127000 1.198279
0.127500 1.201833
0.128000 1.205416
0.128500 1.208854
0.129000 1.212001
0.129500 1.214743
0.130000 1.217007
0.130500 1.218755
0.131000 1.219992
0.131500 1.220762
0.132000 1.221151
0.132500 1.221287
0.133000 1.221332
0.133500 1.221471
0.134000 1.221888
0.134500 1.222749
0.135000 1.224174
0.135500 1.226221
0.136000 1.228874
0.136500 1.232045
0.137000 1.235580
0.137500 1.239280
0.138000 1.242920
0.138500 1.246280
0.139000 1.249162
0.139500 1.251406
0.140000 1.252903
0.140500 1.253599
0.141000 1.253497
0.141500 1.252652
0.142000 1.251175
0.142500 1.249225
0.143000 1.247004
0.143500 1.244740
0.144000 1.242667
0.144500 1.241007
0.145000 1.239942
0.145500 1.239591
0.146000 1.240000
0.146500 1.241136
0.147000 1.242888
0.147500 1.245087
0.148000 1.247523
0.148500 1.249973
0.149000 1.252222
0.149500 1.254087
0.150000 1.255426
0.150500 1.256150
0.151000 1.256224
0.151500 1.255666
0.152000 1.254550
0.152500 1.252999
0.153000 1.251180
0.153500 1.249297
0.154000 1.247573
0.154500 1.246227
0.155000 1.245457
0.155500 1.245407
0.156000 1.246159
0.156500 1.247714
0.157000 1.249992
0.157500 1.252844
0.158000 1.256066
0.158500 1.259423
0.159000 1.262678
0.159500 1.265611
0.160000 1.268040
0.160500 1.269830
0.161000 1.270901
0.161500 1.271229
0.162000 1.270843
0.162500 1.269824
0.163000 1.268302
0.163500 1.266452
0.164000 1.264483
0.164500 1.262625
0.165000 1.261104
0.165500 1.260121
0.166000 1.259828
0.166500 1.260311
0.167000 1.261578
0.167500 1.263556
0.168000 1.266106
0.168500 1.269034
0.169000 1.272118
0.169500 1.275131
0.170000 1.277862
0.170500 1.280132
0.171000 1.281808
0.171500 1.282803
0.172000 1.283084
0.172500 1.282669
0.173000 1.281628
0.173500 1.280083
0.174000 1.278203
0.174500 1.276192
0.175000 1.274275
0.175500 1.272673
0.176000 1.271577
0.176500 1.271131
0.177000 1.271407
0.177500 1.272400
0.178000 1.274032
0.178500 1.276158
0.179000 1.278588
0.179500 1.281110
0.180000 1.283514
0.180500 1.285608
0.181000 1.287240
0.181500 1.288300
0.182000 1.288728
0.182500 1.288515
0.183000 1.287706
0.183500 1.286399
0.184000 1.284739
0.184500 1.282914
0.185000 1.281140
0.185500 1.279638
0.186000 1.278611
0.186500 1.278218
0.187000 1.278556
0.187500 1.279643
0.188000 1.281414
0.188500 1.283732
0.189000 1.286401
0.189500 1.289194
0.190000 1.291877
0.190500 1.294237
0.191000 1.296098
0.191500 1.297339
0.192000 1.297890
0.192500 1.297741
0.193000 1.296932
0.193500 1.295550
0.194000 1.293727
0.194500 1.291632
0.195000 1.289464
0.195500 1.287437
0.196000 1.285763
0.196500 1.284630
0.197000 1.284179
0.197500 1.284484
0.198000 1.285546
0.198500 1.287286
0.199000 1.289553
0.199500 1.292148
0.200000 1.294840
0.200500 1.297258
0.201000 1.299179
0.201500 1.300503
0.202000 1.301188
0.202500 1.301248
0.203000 1.300745
0.203500 1.299778
0.204000 1.298478
0.204500 1.296995
0.205000 1.295485
0.205500 1.294102
0.206000 1.292982
0.206500 1.292230
0.207000 1.291914
0.207500 1.292061
0.208000 1.292657
0.208500 1.293650
0.209000 1.294964
0.209500 1.296505
0.210000 1.298175
0.210500 1.299880
0.211000 1.301538
0.211500 1.303087
0.212000 1.304485
0.212500 1.305710
0.213000 1.306760
0.213500 1.307651
0.214000 1.308414
0.214500 1.309091
0.215000 1.309731
0.215500 1.310385
0.216000 1.311101
0.216500 1.311919
0.217000 1.312871
0.217500 1.313972
0.218000 1.315222
0.218500 1.316606
0.219000 1.318098
0.219500 1.319657
0.220000 1.321240
0.220500 1.322799
0.221000 1.324291
0.221500 1.325675
0.222000 1.326920
0.222500 1.328005
0.223000 1.328920
0.223500 1.329666
0.224000 1.330253
0.224500 1.330700
0.225000 1.331032
0.225500 1.331278
0.226000 1.331468
0.226500 1.331633
0.227000 1.331798
0.227500 1.331984
0.228000 1.332205
0.228500 1.332472
0.229000 1.332784
0.229500 1.333140
0.230000 1.333531
0.230500 1.333947
0.231000 1.334375
0.231500 1.334804
0.232000 1.335224
0.232500 1.335627
0.233000 1.336009
0.233500 1.336369
0.234000 1.336708
0.234500 1.337031
0.235000 1.337347
0.235500 1.337665
0.236000 1.337993
0.236500 1.338340
0.237000 1.338716
0.237500 1.339126
0.238000 1.339573
0.238500 1.340060
0.239000 1.340584
0.239500 1.341141
0.240000 1.341727
0.240500 1.342334
0.241000 1.342954
0.241500 1.343581
0.242000 1.344207
0.242500 1.344826
0.243000 1.345436
0.243500 1.346033
0.244000 1.346617
0.244500 1.347190
0.245000 1.347754
0.245500 1.348315
0.246000 1.348875
0.246500 1.349440
0.247000 1.350014
0.247500 1.350600
0.248000 1.351202
0.248500 1.351821
0.249000 1.352456
0.249500 1.353107
0.250000 1.353771
0.250500 1.354443
0.251000 1.355121
0.251500 1.355799
0.252000 1.356474
0.252500 1.357141
0.253000 1.357796
0.253500 1.358436
0.254000 1.359060
0.254500 1.359667
0.255000 1.360256
0.255500 1.360827
0.256000 1.361382
0.256500 1.361922
0.257000 1.362448
0.257500 1.362962
0.258000 1.363465
0.258500 1.363958
0.259000 1.364442
0.259500 1.364917
0.260000 1.365383
0.260500 1.365838
0.261000 1.366283
0.261500 1.366717
0.262000 1.367138
0.262500 1.367546
0.263000 1.367940
0.263500 1.368320
0.264000 1.368687
0.264500 1.369041
0.265000 1.369382
0.265500 1.369713
0.266000 1.370034
0.266500 1.370347
0.267000 1.370654
0.267500 1.370958
0.268000 1.371259
0.268500 1.371558
0.269000 1.371859
0.269500 1.372160
0.270000 1.372464
0.270500 1.372771
0.271000 1.373080
0.271500 1.373393
0.272000 1.373710
0.272500 1.374029
0.273000 1.374352
0.273500 1.374678
0.274000 1.375007
0.274500 1.375340
0.275000 1.375675
0.275500 1.376014
0.276000 1.376357
0.276500 1.376704
0.277000 1.377054
0.277500 1.377410
0.278000 1.377770
0.278500 1.378135
0.279000 1.378506
0.279500 1.378881
0.280000 1.379261
0.280500 1.379646
0.281000 1.380036
0.281500 1.380429
0.282000 1.380826
0.282500 1.381226
0.283000 1.381629
0.283500 1.382034
0.284000 1.382440
0.284500 1.382848
0.285000 1.383256
0.285500 1.383665
0.286000 1.384074
0.286500 1.384482
0.287000 1.384891
0.287500 1.385298
0.288000 1.385704
0.288500 1.386110
0.289000 1.386513
0.289500 1.386915
0.290000 1.387315
0.290500 1.387712
0.291000 1.388106
0.291500 1.388496
0.292000 1.388883
0.292500 1.389265
0.293000 1.389643
0.293500 1.390016
0.294000 1.390383
0.294500 1.390745
0.295000 1.391101
0.295500 1.391452
0.296000 1.391796
0.296500 1.392135
0.297000 1.392468
0.297500 1.392796
0.298000 1.393118
0.298500 1.393435
0.299000 1.393747
0.299500 1.394054
0.300000 1.394357
0.300500 1.394656
0.301000 1.394951
0.301500 1.395243
0.302000 1.395531
0.302500 1.395816
0.303000 1.396099
0.303500 1.396378
0.304000 1.396655
0.304500 1.396930
0.305000 1.397203
0.305500 1.397475
0.306000 1.397744
0.306500 1.398012
0.307000 1.398279
0.307500 1.398545
0.308000 1.398810
0.308500 1.399074
0.309000 1.399338
0.309500 1.399601
0.310000 1.399865
0.310500 1.400128
0.311000 1.400391
0.311500 1.400655
0.312000 1.400920
0.312500 1.401185
0.313000 1.401450
0.313500 1.401717
0.314000 1.401984
0.314500 1.402253
0.315000 1.402524
0.315500 1.402796
0.316000 1.403070
0.316500 1.403345
0.317000 1.403624
0.317500 1.403904
0.318000 1.404187
0.318500 1.404473
0.319000 1.404762
0.319500 1.405055
0.320000 1.405351
0.320500 1.405650
0.321000 1.405954
0.321500 1.406261
0.322000 1.406572
0.322500 1.406888
0.323000 1.407208
0.323500 1.407533
0.324000 1.407862
0.324500 1.408195
0.325000 1.408534
0.325500 1.408876
0.326000 1.409224
0.326500 1.409576
0.327000 1.409932
0.327500 1.410294
0.328000 1.410659
0.328500 1.411029
0.329000 1.411403
0.329500 1.411781
0.330000 1.412163
0.330500 1.412549
0.331000 1.412939
0.331500 1.413332
0.332000 1.413729
0.332500 1.414129
0.333000 1.414532
0.333500 1.414938
0.334000 1.415347
0.334500 1.415758
0.335000 1.416171
0.335500 1.416586
0.336000 1.417004
0.336500 1.417423
0.337000 1.417844
0.337500 1.418266
0.338000 1.418689
0.338500 1.419114
0.339000 1.419540
0.339500 1.419966
0.340000 1.420394
0.340500 1.420822
0.341000 1.421250
0.341500 1.421680
0.342000 1.422109
0.342500 1.422539
0.343000 1.422969
0.343500 1.423400
0.344000 1.423831
0.344500 1.424262
0.345000 1.424693
0.345500 1.425124
0.346000 1.425555
0.346500 1.425986
0.347000 1.426418
0.347500 1.426849
0.348000 1.427280
0.348500 1.427712
0.349000 1.428143
0.349500 1.428575
0.350000 1.429006
0.350500 1.429438
0.351000 1.429869
0.351500 1.430300
0.352000 1.430732
0.352500 1.431163
0.353000 1.431594
0.353500 1.432025
0.354000 1.432456
0.354500 1.432887
0.355000 1.433318
0.355500 1.433748
0.356000 1.434179
0.356500 1.434608
0.357000 1.435038
0.357500 1.435467
0.358000 1.435896
0.358500 1.436324
0.359000 1.436752
0.359500 1.437179
0.360000 1.437605
0.360500 1.438031
0.361000 1.438455
0.361500 1.438879
0.362000 1.439303
0.362500 1.439725
0.363000 1.440146
0.363500 1.440566
0.364000 1.440985
0.364500 1.441403
0.365000 1.441819
0.365500 1.442235
0.366000 1.442649
0.366500 1.443061
0.367000 1.443473
0.367500 1.443883
0.368000 1.444291
0.368500 1.444698
0.369000 1.445103
0.369500 1.445507
0.370000 1.445910
0.370500 1.446311
0.371000 1.446710
0.371500 1.447108
0.372000 1.447504
0.372500 1.447898
0.373000 1.448292
0.373500 1.448683
0.374000 1.449073
0.374500 1.449462
0.375000 1.449850
0.375500 1.450235
0.376000 1.450620
0.376500 1.451004
0.377000 1.451386
0.377500 1.451767
0.378000 1.452147
0.378500 1.452526
0.379000 1.452904
0.379500 1.453281
0.380000 1.453657
0.380500 1.454033
0.381000 1.454408
0.381500 1.454782
0.382000 1.455156
0.382500 1.455530
0.383000 1.455903
0.383500 1.456276
0.384000 1.456649
0.384500 1.457021
0.385000 1.457394
0.385500 1.457766
0.386000 1.458139
0.386500 1.458512
0.387000 1.458885
0.387500 1.459259
0.388000 1.459633
0.388500 1.460007
0.389000 1.460381
0.389500 1.460756
0.390000 1.461131
0.390500 1.461507
0.391000 1.461884
0.391500 1.462261
0.392000 1.462638
0.392500 1.463016
0.393000 1.463394
0.393500 1.463773
0.394000 1.464152
0.394500 1.464532
0.395000 1.464912
0.395500 1.465293
0.396000 1.465674
0.396500 1.466055
0.397000 1.466436
0.397500 1.466818
0.398000 1.467200
0.398500 1.467582
0.399000 1.467964
0.399500 1.468346
0.400000 1.468728
0.400500 1.469110
0.401000 1.469491
0.401500 1.469873
0.402000 1.470254
0.402500 1.470635
0.403000 1.471016
0.403500 1.471396
0.404000 1.471776
0.404500 1.472155
0.405000 1.472534
0.405500 1.472912
0.406000 1.473289
0.406500 1.473666
0.407000 1.474042
0.407500 1.474417
0.408000 1.474791
0.408500 1.475164
0.409000 1.475537
0.409500 1.475908
0.410000 1.476279
0.410500 1.476648
0.411000 1.477017
0.411500 1.477384
0.412000 1.477750
0.412500 1.478115
0.413000 1.478479
0.413500 1.478842
0.414000 1.479204
0.414500 1.479564
0.415000 1.479923
0.415500 1.480281
0.416000 1.480637
0.416500 1.480993
0.417000 1.481347
0.417500 1.481699
0.418000 1.482050
0.418500 1.482400
0.419000 1.482748
0.419500 1.483095
0.420000 1.483441
0.420500 1.483785
0.421000 1.484127
0.421500 1.484468
0.422000 1.484807
0.422500 1.485145
0.423000 1.485481
0.423500 1.485816
0.424000 1.486149
0.424500 1.486480
0.425000 1.486810
0.425500 1.487138
0.426000 1.487464
0.426500 1.487789
0.427000 1.488111
0.427500 1.488432
0.428000 1.488751
0.428500 1.489068
0.429000 1.489384
0.429500 1.489697
0.430000 1.490009
0.430500 1.490319
0.431000 1.490626
0.431500 1.490932
0.432000 1.491236
0.432500 1.491538
0.433000 1.491838
0.433500 1.492136
0.434000 1.492432
0.434500 1.492726
0.435000 1.493018
0.435500 1.493308
0.436000 1.493596
0.436500 1.493882
0.437000 1.494166
0.437500 1.494448
0.438000 1.494728
0.438500 1.495005
0.439000 1.495281
0.439500 1.495555
0.440000 1.495826
0.440500 1.496096
0.441000 1.496364
0.441500 1.496629
0.442000 1.496893
0.442500 1.497154
0.443000 1.497414
0.443500 1.497671
0.444000 1.497927
0.444500 1.498180
0.445000 1.498432
0.445500 1.498681
0.446000 1.498929
0.446500 1.499175
0.447000 1.499418
0.447500 1.499660
0.448000 1.499900
0.448500 1.500137
0.449000 1.500373
0.449500 1.500607
0.450000 1.500839
0.450500 1.501069
0.451000 1.501297
0.451500 1.501524
0.452000 1.501748
0.452500 1.501971
0.453000 1.502191
0.453500 1.502410
0.454000 1.502627
0.454500 1.502842
0.455000 1.503055
0.455500 1.503266
0.456000 1.503476
0.456500 1.503683
0.457000 1.503889
0.457500 1.504092
0.458000 1.504294
0.458500 1.504494
0.459000 1.504692
0.459500 1.504888
0.460000 1.505083
0.460500 1.505275
0.461000 1.505466
0.461500 1.505654
0.462000 1.505841
0.462500 1.506026
0.463000 1.506208
0.463500 1.506389
0.464000 1.506568
0.464500 1.506745
0.465000 1.506920
0.465500 1.507093
0.466000 1.507264
0.466500 1.507433
0.467000 1.507600
0.467500 1.507765
0.468000 1.507928
0.468500 1.508088
0.469000 1.508247
0.469500 1.508403
0.470000 1.508558
0.470500 1.508710
0.471000 1.508860
0.471500 1.509007
0.472000 1.509153
0.472500 1.509296
0.473000 1.509437
0.473500 1.509576
0.474000 1.509713
0.474500 1.509847
0.475000 1.509979
0.475500 1.510108
0.476000 1.510235
0.476500 1.510360
0.477000 1.510482
0.477500 1.510602
0.478000 1.510720
0.478500 1.510835
0.479000 1.510947
0.479500 1.511058
0.480000 1.511165
0.480500 1.511271
0.481000 1.511373
0.481500 1.511474
0.482000 1.511571
0.482500 1.511667
0.483000 1.511759
0.483500 1.511850
0.484000 1.511938
0.484500 1.512023
0.485000 1.512106
0.485500 1.512186
0.486000 1.512264
0.486500 1.512339
0.487000 1.512412
0.487500 1.512483
0.488000 1.512551
0.488500 1.512617
0.489000 1.512680
0.489500 1.512742
0.490000 1.512800
0.490500 1.512857
0.491000 1.512911
0.491500 1.512963
0.492000 1.513012
0.492500 1.513060
0.493000 1.513105
0.493500 1.513148
0.494000 1.513189
0.494500 1.513228
0.495000 1.513265
0.495500 1.513300
0.496000 1.513333
0.496500 1.513364
0.497000 1.513393
0.497500 1.513420
0.498000 1.513446
0.498500 1.513469
0.499000 1.513491
0.499500 1.513511
0.500000 1.513530
0.509900 1.515027
0.519800 1.516025
0.529700 1.516693
0.539600 1.517046
0.549500 1.517062
0.559400 1.516818
0.569300 1.516469
0.579200 1.516172
0.589100 1.516033
0.599000 1.516073
0.608900 1.516230
0.618800 1.516387
0.628700 1.516385
0.638600 1.516068
0.648500 1.515360
0.658400 1.514275
0.668300 1.512854
0.678200 1.511137
0.688100 1.509171
0.698000 1.507021
0.707900 1.504741
0.717800 1.502335
0.727700 1.499763
0.737600 1.496982
0.747500 1.493979
0.757400 1.490778
0.767300 1.487464
0.777200 1.484194
0.787100 1.481156
0.797000 1.478505
0.806900 1.476298
0.816800 1.474501
0.826700 1.473019
0.836600 1.471717
0.846500 1.470424
0.856400 1.468952
0.866300 1.467123
0.876200 1.464809
0.886100 1.461959
0.896000 1.458622
0.905900 1.454957
0.915800 1.451225
0.925700 1.447695
0.935600 1.444508
0.945500 1.441640
0.955400 1.438994
0.965300 1.436485
0.975200 1.434062
0.985100 1.431698
0.995000 1.429349
1.004900 1.426929
1.014800 1.424355
1.024700 1.421639
1.034600 1.418912
1.044500 1.416324
1.054400 1.413893
1.064300 1.411484
1.074200 1.408925
1.084100 1.406120
1.094000 1.403121
1.103900 1.400124
1.113800 1.397335
1.123700 1.394841
1.133600 1.392575
1.143500 1.390375
1.153400 1.388089
1.163300 1.385697
1.173200 1.383339
1.183100 1.381216
1.193000 1.379458
1.202900 1.378044
1.212800 1.376870
1.222700 1.375900
1.232600 1.375186
1.242500 1.374710
1.252400 1.374308
1.262300 1.373759
1.272200 1.372905
1.282100 1.371705
1.292000 1.370224
1.301900 1.368587
1.311800 1.366884
1.321700 1.365146
1.331600 1.363414
1.341500 1.361790
1.351400 1.360361
1.361300 1.359086
1.371200 1.357781
1.381100 1.356244
1.391000 1.354388
1.400900 1.352271
1.410800 1.350016
1.420700 1.347706
1.430600 1.345343
1.440500 1.342868
1.450400 1.340224
1.460300 1.337384
1.470200 1.334318
1.480100 1.330984
1.490000 1.327377
1.499900 1.323578
