# Random transverse-field Ising model
# L=22, J=1=gamma, W_J=0.2, W=4.5
# High-T dynamical energy conductivity sigma^E(omega); via MCLM
# omega/J sigma^E(omega)

0.000000 0.001914
0.000250 0.001914
0.000500 0.001915
0.000750 0.001927
0.001000 0.001954
0.001250 0.002001
0.001500 0.002068
0.001750 0.002150
0.002000 0.002233
0.002250 0.002304
0.002500 0.002364
0.002750 0.002436
0.003000 0.002545
0.003250 0.002703
0.003500 0.002900
0.003750 0.003090
0.004000 0.003217
0.004250 0.003263
0.004500 0.003280
0.004750 0.003328
0.005000 0.003413
0.005250 0.003484
0.005500 0.003480
0.005750 0.003404
0.006000 0.003322
0.006250 0.003297
0.006500 0.003354
0.006750 0.003482
0.007000 0.003636
0.007250 0.003762
0.007500 0.003850
0.007750 0.003958
0.008000 0.004161
0.008250 0.004509
0.008500 0.005017
0.008750 0.005635
0.009000 0.006213
0.009250 0.006563
0.009500 0.006633
0.009750 0.006554
0.010000 0.006476
0.010250 0.006413
0.010500 0.006248
0.010750 0.005905
0.011000 0.005473
0.011250 0.005105
0.011500 0.004897
0.011750 0.004859
0.012000 0.004929
0.012250 0.004978
0.012500 0.004885
0.012750 0.004651
0.013000 0.004394
0.013250 0.004216
0.013500 0.004158
0.013750 0.004198
0.014000 0.004275
0.014250 0.004312
0.014500 0.004280
0.014750 0.004227
0.015000 0.004225
0.015250 0.004320
0.015500 0.004494
0.015750 0.004668
0.016000 0.004744
0.016250 0.004701
0.016500 0.004621
0.016750 0.004609
0.017000 0.004723
0.017250 0.004960
0.017500 0.005259
0.017750 0.005530
0.018000 0.005713
0.018250 0.005803
0.018500 0.005853
0.018750 0.005965
0.019000 0.006215
0.019250 0.006574
0.019500 0.006902
0.019750 0.007041
0.020000 0.006968
0.020250 0.006829
0.020500 0.006775
0.020750 0.006845
0.021000 0.006976
0.021250 0.007109
0.021500 0.007258
0.021750 0.007524
0.022000 0.008021
0.022250 0.008770
0.022500 0.009595
0.022750 0.010112
0.023000 0.009991
0.023250 0.009308
0.023500 0.008445
0.023750 0.007726
0.024000 0.007274
0.024250 0.007049
0.024500 0.006933
0.024750 0.006804
0.025000 0.006605
0.025250 0.006378
0.025500 0.006224
0.025750 0.006219
0.026000 0.006366
0.026250 0.006589
0.026500 0.006775
0.026750 0.006881
0.027000 0.006984
0.027250 0.007228
0.027500 0.007723
0.027750 0.008506
0.028000 0.009494
0.028250 0.010420
0.028500 0.010915
0.028750 0.010863
0.029000 0.010564
0.029250 0.010395
0.029500 0.010490
0.029750 0.010678
0.030000 0.010613
0.030250 0.010120
0.030500 0.009389
0.030750 0.008731
0.031000 0.008328
0.031250 0.008228
0.031500 0.008404
0.031750 0.008777
0.032000 0.009247
0.032250 0.009781
0.032500 0.010485
0.032750 0.011545
0.033000 0.013137
0.033250 0.015358
0.033500 0.018104
0.033750 0.020844
0.034000 0.022604
0.034250 0.022679
0.034500 0.021408
0.034750 0.019649
0.035000 0.017865
0.035250 0.016135
0.035500 0.014569
0.035750 0.013384
0.036000 0.012736
0.036250 0.012681
0.036500 0.013206
0.036750 0.014212
0.037000 0.015414
0.037250 0.016318
0.037500 0.016536
0.037750 0.016203
0.038000 0.015839
0.038250 0.015834
0.038500 0.016192
0.038750 0.016592
0.039000 0.016726
0.039250 0.016668
0.039500 0.016810
0.039750 0.017500
0.040000 0.018790
0.040250 0.020352
0.040500 0.021613
0.040750 0.022216
0.041000 0.022313
0.041250 0.022257
0.041500 0.022078
0.041750 0.021422
0.042000 0.020076
0.042250 0.018343
0.042500 0.016799
0.042750 0.015851
0.043000 0.015604
0.043250 0.015929
0.043500 0.016524
0.043750 0.017031
0.044000 0.017117
0.044250 0.016517
0.044500 0.015328
0.044750 0.013991
0.045000 0.012839
0.045250 0.011868
0.045500 0.010918
0.045750 0.009943
0.046000 0.009053
0.046250 0.008370
0.046500 0.007936
0.046750 0.007737
0.047000 0.007719
0.047250 0.007791
0.047500 0.007853
0.047750 0.007848
0.048000 0.007822
0.048250 0.007885
0.048500 0.008126
0.048750 0.008565
0.049000 0.009145
0.049250 0.009753
0.049500 0.010311
0.049750 0.010866
0.050000 0.011590
0.050250 0.012651
0.050500 0.014053
0.050750 0.015488
0.051000 0.016366
0.051250 0.016291
0.051500 0.015550
0.051750 0.014797
0.052000 0.014503
0.052250 0.014847
0.052500 0.015797
0.052750 0.017098
0.053000 0.018240
0.053250 0.018771
0.053500 0.018808
0.053750 0.018903
0.054000 0.019427
0.054250 0.020240
0.054500 0.020814
0.054750 0.020759
0.055000 0.020292
0.055250 0.019985
0.055500 0.020215
0.055750 0.020983
0.056000 0.022107
0.056250 0.023410
0.056500 0.024671
0.056750 0.025718
0.057000 0.026767
0.057250 0.028182
0.057500 0.029788
0.057750 0.030749
0.058000 0.030369
0.058250 0.029000
0.058500 0.027703
0.058750 0.027253
0.059000 0.027690
0.059250 0.028336
0.059500 0.028232
0.059750 0.027087
0.060000 0.025570
0.060250 0.024456
0.060500 0.023945
0.060750 0.023711
0.061000 0.023358
0.061250 0.022789
0.061500 0.022114
0.061750 0.021566
0.062000 0.021503
0.062250 0.022240
0.062500 0.023934
0.062750 0.026516
0.063000 0.029584
0.063250 0.032483
0.063500 0.034940
0.063750 0.037475
0.064000 0.040633
0.064250 0.044032
0.064500 0.046382
0.064750 0.046408
0.065000 0.044015
0.065250 0.040564
0.065500 0.037566
0.065750 0.035427
0.066000 0.033465
0.066250 0.030875
0.066500 0.027709
0.066750 0.024686
0.067000 0.022397
0.067250 0.021030
0.067500 0.020494
0.067750 0.020505
0.068000 0.020639
0.068250 0.020535
0.068500 0.020156
0.068750 0.019824
0.069000 0.019929
0.069250 0.020645
0.069500 0.021846
0.069750 0.023189
0.070000 0.024464
0.070250 0.025962
0.070500 0.028242
0.070750 0.031598
0.071000 0.035622
0.071250 0.038945
0.071500 0.039847
0.071750 0.037916
0.072000 0.034478
0.072250 0.031188
0.072500 0.029009
0.072750 0.028220
0.073000 0.028710
0.073250 0.030223
0.073500 0.032541
0.073750 0.035349
0.074000 0.037789
0.074250 0.038741
0.074500 0.038027
0.074750 0.036435
0.075000 0.034382
0.075250 0.031642
0.075500 0.028307
0.075750 0.025061
0.076000 0.022528
0.076250 0.020897
0.076500 0.019991
0.076750 0.019373
0.077000 0.018592
0.077250 0.017562
0.077500 0.016583
0.077750 0.015981
0.078000 0.015921
0.078250 0.016450
0.078500 0.017540
0.078750 0.019083
0.079000 0.020916
0.079250 0.022876
0.079500 0.024794
0.079750 0.026604
0.080000 0.028390
0.080250 0.029919
0.080500 0.030468
0.080750 0.029632
0.081000 0.027995
0.081250 0.026562
0.081500 0.025861
0.081750 0.025682
0.082000 0.025375
0.082250 0.024534
0.082500 0.023388
0.082750 0.022447
0.083000 0.022108
0.083250 0.022463
0.083500 0.023200
0.083750 0.023740
0.084000 0.023731
0.084250 0.023284
0.084500 0.022676
0.084750 0.022201
0.085000 0.022067
0.085250 0.022129
0.085500 0.021928
0.085750 0.021114
0.086000 0.019797
0.086250 0.018461
0.086500 0.017562
0.086750 0.017273
0.087000 0.017464
0.087250 0.017741
0.087500 0.017680
0.087750 0.017245
0.088000 0.016819
0.088250 0.016783
0.088500 0.017247
0.088750 0.017995
0.089000 0.018553
0.089250 0.018536
0.089500 0.018071
0.089750 0.017656
0.090000 0.017692
0.090250 0.018280
0.090500 0.019209
0.090750 0.020033
0.091000 0.020391
0.091250 0.020308
0.091500 0.020079
0.091750 0.020063
0.092000 0.020549
0.092250 0.021648
0.092500 0.023292
0.092750 0.025386
0.093000 0.028017
0.093250 0.031557
0.093500 0.036579
0.093750 0.043600
0.094000 0.052676
0.094250 0.062641
0.094500 0.070351
0.094750 0.072001
0.095000 0.066959
0.095250 0.058500
0.095500 0.050023
0.095750 0.042884
0.096000 0.037197
0.096250 0.032917
0.096500 0.029991
0.096750 0.028173
0.097000 0.027068
0.097250 0.026253
0.097500 0.025390
0.097750 0.024447
0.098000 0.023690
0.098250 0.023274
0.098500 0.023083
0.098750 0.023032
0.099000 0.023260
0.099250 0.023831
0.099500 0.024419
0.099750 0.024528
0.100000 0.024095
0.100250 0.023588
0.100500 0.023446
0.100750 0.023801
0.101000 0.024712
0.101250 0.026356
0.101500 0.028823
0.101750 0.031749
0.102000 0.034255
0.102250 0.035671
0.102500 0.036426
0.102750 0.037553
0.103000 0.039460
0.103250 0.041458
0.103500 0.042373
0.103750 0.041875
0.104000 0.040775
0.104250 0.039628
0.104500 0.037959
0.104750 0.035242
0.105000 0.031944
0.105250 0.028980
0.105500 0.026834
0.105750 0.025518
0.106000 0.024799
0.106250 0.024250
0.106500 0.023389
0.106750 0.022050
0.107000 0.020554
0.107250 0.019368
0.107500 0.018777
0.107750 0.018890
0.108000 0.019761
0.108250 0.021435
0.108500 0.023897
0.108750 0.026920
0.109000 0.029957
0.109250 0.032474
0.109500 0.034498
0.109750 0.036318
0.110000 0.037646
0.110250 0.037832
0.110500 0.036904
0.110750 0.035732
0.111000 0.035118
0.111250 0.035044
0.111500 0.034830
0.111750 0.033979
0.112000 0.032511
0.112250 0.030604
0.112500 0.028619
0.112750 0.027104
0.113000 0.026330
0.113250 0.025984
0.113500 0.025335
0.113750 0.023922
0.114000 0.022054
0.114250 0.020372
0.114500 0.019283
0.114750 0.018886
0.115000 0.019068
0.115250 0.019531
0.115500 0.019902
0.115750 0.020074
0.116000 0.020357
0.116250 0.021176
0.116500 0.022773
0.116750 0.025091
0.117000 0.027640
0.117250 0.029514
0.117500 0.029947
0.117750 0.029053
0.118000 0.027692
0.118250 0.026533
0.118500 0.025588
0.118750 0.024578
0.119000 0.023437
0.119250 0.022333
0.119500 0.021523
0.119750 0.021264
0.120000 0.021698
0.120250 0.022780
0.120500 0.024206
0.120750 0.025472
0.121000 0.026287
0.121250 0.026988
0.121500 0.028254
0.121750 0.030632
0.122000 0.034397
0.122250 0.039451
0.122500 0.045016
0.122750 0.049558
0.123000 0.051900
0.123250 0.052439
0.123500 0.052140
0.123750 0.051072
0.124000 0.048978
0.124250 0.046125
0.124500 0.042957
0.124750 0.039991
0.125000 0.037909
0.125250 0.037201
0.125500 0.037910
0.125750 0.039653
0.126000 0.041697
0.126250 0.043091
0.126500 0.043189
0.126750 0.042385
0.127000 0.041688
0.127250 0.041620
0.127500 0.042003
0.127750 0.042510
0.128000 0.043182
0.128250 0.044580
0.128500 0.047486
0.128750 0.052363
0.129000 0.058891
0.129250 0.065449
0.129500 0.069330
0.129750 0.068895
0.130000 0.065445
0.130250 0.061713
0.130500 0.059386
0.130750 0.058395
0.131000 0.057607
0.131250 0.056170
0.131500 0.054425
0.131750 0.053452
0.132000 0.054148
0.132250 0.056869
0.132500 0.061458
0.132750 0.067380
0.133000 0.074277
0.133250 0.082821
0.133500 0.094683
0.133750 0.111584
0.134000 0.134334
0.134250 0.161498
0.134500 0.187256
0.134750 0.201040
0.135000 0.194858
0.135250 0.172625
0.135500 0.145648
0.135750 0.122060
0.136000 0.104297
0.136250 0.091569
0.136500 0.082233
0.136750 0.074966
0.137000 0.069003
0.137250 0.064272
0.137500 0.061074
0.137750 0.059232
0.138000 0.057761
0.138250 0.055644
0.138500 0.052988
0.138750 0.050846
0.139000 0.050136
0.139250 0.051201
0.139500 0.053788
0.139750 0.056922
0.140000 0.059126
0.140250 0.059675
0.140500 0.059552
0.140750 0.060465
0.141000 0.063511
0.141250 0.068727
0.141500 0.074886
0.141750 0.079711
0.142000 0.081686
0.142250 0.081840
0.142500 0.082331
0.142750 0.083906
0.143000 0.085635
0.143250 0.086653
0.143500 0.087225
0.143750 0.088076
0.144000 0.090289
0.144250 0.095496
0.144500 0.105170
0.144750 0.119794
0.145000 0.137849
0.145250 0.154703
0.145500 0.164378
0.145750 0.165585
0.146000 0.163545
0.146250 0.163540
0.146500 0.165578
0.146750 0.165429
0.147000 0.160608
0.147250 0.154128
0.147500 0.150577
0.147750 0.151087
0.148000 0.152318
0.148250 0.148863
0.148500 0.138005
0.148750 0.122578
0.149000 0.107743
0.149250 0.096653
0.149500 0.089675
0.149750 0.085205
0.150000 0.080823
0.150250 0.075290
0.150500 0.069570
0.150750 0.065329
0.151000 0.063389
0.151250 0.063416
0.151500 0.064035
0.151750 0.063413
0.152000 0.060566
0.152250 0.056197
0.152500 0.051955
0.152750 0.049068
0.153000 0.047831
0.153250 0.047703
0.153500 0.047588
0.153750 0.046668
0.154000 0.045263
0.154250 0.044421
0.154500 0.044913
0.154750 0.046779
0.155000 0.049189
0.155250 0.050623
0.155500 0.050083
0.155750 0.048290
0.156000 0.046895
0.156250 0.047119
0.156500 0.049453
0.156750 0.053719
0.157000 0.058774
0.157250 0.062296
0.157500 0.062144
0.157750 0.058656
0.158000 0.054195
0.158250 0.050615
0.158500 0.048158
0.158750 0.045951
0.159000 0.043214
0.159250 0.040163
0.159500 0.037597
0.159750 0.036072
0.160000 0.035678
0.160250 0.036089
0.160500 0.036642
0.160750 0.036734
0.161000 0.036435
0.161250 0.036381
0.161500 0.037120
0.161750 0.038772
0.162000 0.040982
0.162250 0.043046
0.162500 0.044515
0.162750 0.045786
0.163000 0.047698
0.163250 0.050813
0.163500 0.055219
0.163750 0.060771
0.164000 0.067572
0.164250 0.076086
0.164500 0.086598
0.164750 0.099042
0.165000 0.113944
0.165250 0.133124
0.165500 0.158647
0.165750 0.190896
0.166000 0.226589
0.166250 0.258412
0.166500 0.278357
0.166750 0.280043
0.167000 0.260177
0.167250 0.224323
0.167500 0.184490
0.167750 0.149424
0.168000 0.121897
0.168250 0.101505
0.168500 0.087000
0.168750 0.077103
0.169000 0.070561
0.169250 0.065955
0.169500 0.061830
0.169750 0.057497
0.170000 0.053368
0.170250 0.050057
0.170500 0.047590
0.170750 0.045554
0.171000 0.043747
0.171250 0.042387
0.171500 0.041693
0.171750 0.041711
0.172000 0.042485
0.172250 0.043890
0.172500 0.045285
0.172750 0.045720
0.173000 0.044738
0.173250 0.042789
0.173500 0.040876
0.173750 0.039861
0.174000 0.040129
0.174250 0.041623
0.174500 0.043894
0.174750 0.046175
0.175000 0.047625
0.175250 0.047872
0.175500 0.047501
0.175750 0.047491
0.176000 0.048212
0.176250 0.049244
0.176500 0.050012
0.176750 0.050580
0.177000 0.051742
0.177250 0.054437
0.177500 0.059298
0.177750 0.066550
0.178000 0.075799
0.178250 0.085784
0.178500 0.094907
0.178750 0.102723
0.179000 0.110476
0.179250 0.118906
0.179500 0.125562
0.179750 0.126038
0.180000 0.119369
0.180250 0.109726
0.180500 0.101827
0.180750 0.097657
0.181000 0.096538
0.181250 0.096286
0.181500 0.095252
0.181750 0.093898
0.182000 0.093658
0.182250 0.095267
0.182500 0.098470
0.182750 0.102386
0.183000 0.106627
0.183250 0.111971
0.183500 0.119500
0.183750 0.130416
0.184000 0.146492
0.184250 0.168929
0.184500 0.195727
0.184750 0.219227
0.185000 0.228546
0.185250 0.220058
0.185500 0.202244
0.185750 0.186301
0.186000 0.177941
0.186250 0.176800
0.186500 0.177947
0.186750 0.175183
0.187000 0.166888
0.187250 0.156950
0.187500 0.148762
0.187750 0.141522
0.188000 0.132482
0.188250 0.121050
0.188500 0.109207
0.188750 0.099345
0.189000 0.093004
0.189250 0.090664
0.189500 0.091884
0.189750 0.095282
0.190000 0.098784
0.190250 0.100760
0.190500 0.101135
0.190750 0.101504
0.191000 0.103994
0.191250 0.109672
0.191500 0.118149
0.191750 0.127820
0.192000 0.135149
0.192250 0.135384
0.192500 0.127334
0.192750 0.115047
0.193000 0.102758
0.193250 0.091631
0.193500 0.081346
0.193750 0.072211
0.194000 0.065009
0.194250 0.060173
0.194500 0.057726
0.194750 0.057544
0.195000 0.059455
0.195250 0.063082
0.195500 0.067627
0.195750 0.072043
0.196000 0.075859
0.196250 0.079872
0.196500 0.085638
0.196750 0.093989
0.197000 0.103850
0.197250 0.112227
0.197500 0.116341
0.197750 0.116679
0.198000 0.116354
0.198250 0.116998
0.198500 0.116852
0.198750 0.113173
0.199000 0.106018
0.199250 0.098393
0.199500 0.093074
0.199750 0.090721
0.200000 0.090366
0.200250 0.090529
0.200500 0.089407
0.200750 0.086079
0.201000 0.081043
0.201250 0.075777
0.201500 0.071366
0.201750 0.068085
0.202000 0.065798
0.202250 0.064355
0.202500 0.063705
0.202750 0.063817
0.203000 0.064651
0.203250 0.066138
0.203500 0.068174
0.203750 0.070638
0.204000 0.073473
0.204250 0.076747
0.204500 0.080643
0.204750 0.085374
0.205000 0.091098
0.205250 0.097855
0.205500 0.105544
0.205750 0.113906
0.206000 0.122544
0.206250 0.130968
0.206500 0.138673
0.206750 0.145204
0.207000 0.150181
0.207250 0.153311
0.207500 0.154411
0.207750 0.153463
0.208000 0.150665
0.208250 0.146408
0.208500 0.141194
0.208750 0.135529
0.209000 0.129843
0.209250 0.124452
0.209500 0.119561
0.209750 0.115279
0.210000 0.111644
0.210250 0.108642
0.210500 0.106225
0.210750 0.104334
0.211000 0.102899
0.211250 0.101858
0.211500 0.101151
0.211750 0.100719
0.212000 0.100506
0.212250 0.100453
0.212500 0.100505
0.212750 0.100607
0.213000 0.100711
0.213250 0.100779
0.213500 0.100778
0.213750 0.100688
0.214000 0.100496
0.214250 0.100201
0.214500 0.099808
0.214750 0.099332
0.215000 0.098790
0.215250 0.098199
0.215500 0.097575
0.215750 0.096929
0.216000 0.096269
0.216250 0.095600
0.216500 0.094924
0.216750 0.094247
0.217000 0.093574
0.217250 0.092913
0.217500 0.092274
0.217750 0.091669
0.218000 0.091108
0.218250 0.090602
0.218500 0.090161
0.218750 0.089791
0.219000 0.089500
0.219250 0.089293
0.219500 0.089175
0.219750 0.089150
0.220000 0.089223
0.220250 0.089395
0.220500 0.089669
0.220750 0.090047
0.221000 0.090531
0.221250 0.091122
0.221500 0.091820
0.221750 0.092627
0.222000 0.093542
0.222250 0.094565
0.222500 0.095693
0.222750 0.096925
0.223000 0.098256
0.223250 0.099678
0.223500 0.101182
0.223750 0.102759
0.224000 0.104393
0.224250 0.106071
0.224500 0.107773
0.224750 0.109482
0.225000 0.111177
0.225250 0.112838
0.225500 0.114443
0.225750 0.115972
0.226000 0.117406
0.226250 0.118728
0.226500 0.119922
0.226750 0.120975
0.227000 0.121877
0.227250 0.122622
0.227500 0.123205
0.227750 0.123625
0.228000 0.123883
0.228250 0.123983
0.228500 0.123931
0.228750 0.123735
0.229000 0.123406
0.229250 0.122954
0.229500 0.122393
0.229750 0.121738
0.230000 0.121003
0.230250 0.120203
0.230500 0.119355
0.230750 0.118472
0.231000 0.117571
0.231250 0.116663
0.231500 0.115762
0.231750 0.114878
0.232000 0.114022
0.232250 0.113201
0.232500 0.112424
0.232750 0.111694
0.233000 0.111017
0.233250 0.110397
0.233500 0.109835
0.233750 0.109334
0.234000 0.108894
0.234250 0.108516
0.234500 0.108200
0.234750 0.107946
0.235000 0.107753
0.235250 0.107621
0.235500 0.107549
0.235750 0.107537
0.236000 0.107582
0.236250 0.107685
0.236500 0.107844
0.236750 0.108057
0.237000 0.108324
0.237250 0.108641
0.237500 0.109008
0.237750 0.109421
0.238000 0.109877
0.238250 0.110373
0.238500 0.110905
0.238750 0.111469
0.239000 0.112059
0.239250 0.112671
0.239500 0.113299
0.239750 0.113938
0.240000 0.114581
0.240250 0.115223
0.240500 0.115858
0.240750 0.116480
0.241000 0.117084
0.241250 0.117664
0.241500 0.118216
0.241750 0.118735
0.242000 0.119218
0.242250 0.119661
0.242500 0.120062
0.242750 0.120419
0.243000 0.120731
0.243250 0.120997
0.243500 0.121218
0.243750 0.121394
0.244000 0.121527
0.244250 0.121618
0.244500 0.121669
0.244750 0.121682
0.245000 0.121661
0.245250 0.121609
0.245500 0.121528
0.245750 0.121421
0.246000 0.121291
0.246250 0.121141
0.246500 0.120974
0.246750 0.120793
0.247000 0.120599
0.247250 0.120396
0.247500 0.120186
0.247750 0.119970
0.248000 0.119750
0.248250 0.119528
0.248500 0.119306
0.248750 0.119085
0.249000 0.118867
0.249250 0.118652
0.249500 0.118443
0.249750 0.118240
0.250000 0.118044
0.250250 0.117857
0.250500 0.117680
0.250750 0.117513
0.251000 0.117358
0.251250 0.117216
0.251500 0.117087
0.251750 0.116972
0.252000 0.116873
0.252250 0.116790
0.252500 0.116723
0.252750 0.116674
0.253000 0.116642
0.253250 0.116629
0.253500 0.116634
0.253750 0.116659
0.254000 0.116703
0.254250 0.116766
0.254500 0.116850
0.254750 0.116953
0.255000 0.117076
0.255250 0.117219
0.255500 0.117381
0.255750 0.117563
0.256000 0.117764
0.256250 0.117984
0.256500 0.118222
0.256750 0.118478
0.257000 0.118752
0.257250 0.119042
0.257500 0.119347
0.257750 0.119668
0.258000 0.120003
0.258250 0.120351
0.258500 0.120711
0.258750 0.121082
0.259000 0.121463
0.259250 0.121852
0.259500 0.122249
0.259750 0.122652
0.260000 0.123060
0.260250 0.123472
0.260500 0.123885
0.260750 0.124299
0.261000 0.124713
0.261250 0.125124
0.261500 0.125532
0.261750 0.125935
0.262000 0.126333
0.262250 0.126723
0.262500 0.127105
0.262750 0.127478
0.263000 0.127840
0.263250 0.128190
0.263500 0.128529
0.263750 0.128854
0.264000 0.129166
0.264250 0.129464
0.264500 0.129747
0.264750 0.130015
0.265000 0.130267
0.265250 0.130504
0.265500 0.130725
0.265750 0.130930
0.266000 0.131120
0.266250 0.131293
0.266500 0.131452
0.266750 0.131595
0.267000 0.131723
0.267250 0.131837
0.267500 0.131936
0.267750 0.132021
0.268000 0.132093
0.268250 0.132151
0.268500 0.132196
0.268750 0.132229
0.269000 0.132249
0.269250 0.132258
0.269500 0.132255
0.269750 0.132240
0.270000 0.132215
0.270250 0.132179
0.270500 0.132132
0.270750 0.132076
0.271000 0.132009
0.271250 0.131932
0.271500 0.131846
0.271750 0.131750
0.272000 0.131645
0.272250 0.131531
0.272500 0.131407
0.272750 0.131274
0.273000 0.131133
0.273250 0.130982
0.273500 0.130823
0.273750 0.130655
0.274000 0.130479
0.274250 0.130294
0.274500 0.130101
0.274750 0.129899
0.275000 0.129690
0.275250 0.129472
