# Random transverse-field Ising model
# L=22, J=1=gamma, W_J=0.2, W=2.5
# High-T dynamical energy conductivity sigma^E(omega); via MCLM
# omega/J sigma^E(omega)

0.000000 0.223631
0.000500 0.223478
0.001000 0.223030
0.001500 0.222321
0.002000 0.221405
0.002500 0.220352
0.003000 0.219242
0.003500 0.218161
0.004000 0.217195
0.004500 0.216424
0.005000 0.215918
0.005500 0.215733
0.006000 0.215911
0.006500 0.216475
0.007000 0.217430
0.007500 0.218762
0.008000 0.220437
0.008500 0.222405
0.009000 0.224597
0.009500 0.226930
0.010000 0.229311
0.010500 0.231641
0.011000 0.233821
0.011500 0.235759
0.012000 0.237379
0.012500 0.238622
0.013000 0.239454
0.013500 0.239872
0.014000 0.239898
0.014500 0.239581
0.015000 0.238994
0.015500 0.238227
0.016000 0.237381
0.016500 0.236560
0.017000 0.235865
0.017500 0.235388
0.018000 0.235206
0.018500 0.235378
0.019000 0.235943
0.019500 0.236918
0.020000 0.238294
0.020500 0.240043
0.021000 0.242111
0.021500 0.244426
0.022000 0.246898
0.022500 0.249422
0.023000 0.251887
0.023500 0.254181
0.024000 0.256200
0.024500 0.257853
0.025000 0.259075
0.025500 0.259826
0.026000 0.260098
0.026500 0.259916
0.027000 0.259332
0.027500 0.258429
0.028000 0.257306
0.028500 0.256075
0.029000 0.254852
0.029500 0.253750
0.030000 0.252870
0.030500 0.252297
0.031000 0.252095
0.031500 0.252307
0.032000 0.252949
0.032500 0.254012
0.033000 0.255463
0.033500 0.257244
0.034000 0.259278
0.034500 0.261467
0.035000 0.263703
0.035500 0.265873
0.036000 0.267863
0.036500 0.269572
0.037000 0.270915
0.037500 0.271829
0.038000 0.272284
0.038500 0.272277
0.039000 0.271840
0.039500 0.271032
0.040000 0.269938
0.040500 0.268663
0.041000 0.267320
0.041500 0.266026
0.042000 0.264896
0.042500 0.264031
0.043000 0.263517
0.043500 0.263417
0.044000 0.263772
0.044500 0.264599
0.045000 0.265887
0.045500 0.267600
0.046000 0.269677
0.046500 0.272035
0.047000 0.274572
0.047500 0.277172
0.048000 0.279712
0.048500 0.282068
0.049000 0.284129
0.049500 0.285796
0.050000 0.287000
0.050500 0.287698
0.051000 0.287884
0.051500 0.287586
0.052000 0.286864
0.052500 0.285806
0.053000 0.284522
0.053500 0.283136
0.054000 0.281774
0.054500 0.280559
0.055000 0.279605
0.055500 0.279003
0.056000 0.278825
0.056500 0.279117
0.057000 0.279895
0.057500 0.281150
0.058000 0.282843
0.058500 0.284907
0.059000 0.287253
0.059500 0.289772
0.060000 0.292338
0.060500 0.294821
0.061000 0.297091
0.061500 0.299030
0.062000 0.300539
0.062500 0.301548
0.063000 0.302019
0.063500 0.301953
0.064000 0.301386
0.064500 0.300388
0.065000 0.299059
0.065500 0.297519
0.066000 0.295900
0.066500 0.294337
0.067000 0.292960
0.067500 0.291885
0.068000 0.291208
0.068500 0.291002
0.069000 0.291311
0.069500 0.292154
0.070000 0.293518
0.070500 0.295361
0.071000 0.297616
0.071500 0.300187
0.072000 0.302960
0.072500 0.305803
0.073000 0.308577
0.073500 0.311144
0.074000 0.313376
0.074500 0.315167
0.075000 0.316439
0.075500 0.317148
0.076000 0.317290
0.076500 0.316903
0.077000 0.316058
0.077500 0.314859
0.078000 0.313433
0.078500 0.311921
0.079000 0.310466
0.079500 0.309204
0.080000 0.308260
0.080500 0.307733
0.081000 0.307701
0.081500 0.308209
0.082000 0.309273
0.082500 0.310876
0.083000 0.312972
0.083500 0.315481
0.084000 0.318300
0.084500 0.321300
0.085000 0.324338
0.085500 0.327262
0.086000 0.329925
0.086500 0.332191
0.087000 0.333946
0.087500 0.335111
0.088000 0.335645
0.088500 0.335551
0.089000 0.334872
0.089500 0.333693
0.090000 0.332129
0.090500 0.330319
0.091000 0.328416
0.091500 0.326573
0.092000 0.324935
0.092500 0.323632
0.093000 0.322768
0.093500 0.322419
0.094000 0.322631
0.094500 0.323416
0.095000 0.324753
0.095500 0.326587
0.096000 0.328836
0.096500 0.331389
0.097000 0.334116
0.097500 0.336871
0.098000 0.339507
0.098500 0.341879
0.099000 0.343859
0.099500 0.345344
0.100000 0.346266
0.100500 0.346591
0.101000 0.346330
0.101500 0.345533
0.102000 0.344286
0.102500 0.342705
0.103000 0.340930
0.103500 0.339110
0.104000 0.337395
0.104500 0.335928
0.105000 0.334835
0.105500 0.334217
0.106000 0.334146
0.106500 0.334664
0.107000 0.335777
0.107500 0.337456
0.108000 0.339642
0.108500 0.342238
0.109000 0.345124
0.109500 0.348156
0.110000 0.351175
0.110500 0.354017
0.111000 0.356526
0.111500 0.358564
0.112000 0.360022
0.112500 0.360832
0.113000 0.360967
0.113500 0.360449
0.114000 0.359345
0.114500 0.357761
0.115000 0.355836
0.115500 0.353726
0.116000 0.351597
0.116500 0.349611
0.117000 0.347918
0.117500 0.346645
0.118000 0.345890
0.118500 0.345720
0.119000 0.346169
0.119500 0.347231
0.120000 0.348870
0.120500 0.351012
0.121000 0.353555
0.121500 0.356370
0.122000 0.359308
0.122500 0.362213
0.123000 0.364924
0.123500 0.367294
0.124000 0.369197
0.124500 0.370537
0.125000 0.371255
0.125500 0.371338
0.126000 0.370813
0.126500 0.369750
0.127000 0.368256
0.127500 0.366466
0.128000 0.364533
0.128500 0.362619
0.129000 0.360884
0.129500 0.359473
0.130000 0.358512
0.130500 0.358099
0.131000 0.358301
0.131500 0.359149
0.132000 0.360637
0.132500 0.362725
0.133000 0.365336
0.133500 0.368360
0.134000 0.371660
0.134500 0.375078
0.135000 0.378444
0.135500 0.381585
0.136000 0.384342
0.136500 0.386577
0.137000 0.388186
0.137500 0.389108
0.138000 0.389329
0.138500 0.388884
0.139000 0.387855
0.139500 0.386362
0.140000 0.384557
0.140500 0.382610
0.141000 0.380697
0.141500 0.378990
0.142000 0.377644
0.142500 0.376790
0.143000 0.376528
0.143500 0.376921
0.144000 0.377996
0.144500 0.379740
0.145000 0.382099
0.145500 0.384984
0.146000 0.388271
0.146500 0.391807
0.147000 0.395420
0.147500 0.398925
0.148000 0.402142
0.148500 0.404903
0.149000 0.407069
0.149500 0.408540
0.150000 0.409260
0.150500 0.409228
0.151000 0.408492
0.151500 0.407148
0.152000 0.405333
0.152500 0.403213
0.153000 0.400970
0.153500 0.398790
0.154000 0.396853
0.154500 0.395315
0.155000 0.394310
0.155500 0.393932
0.156000 0.394242
0.156500 0.395258
0.157000 0.396955
0.157500 0.399270
0.158000 0.402102
0.158500 0.405315
0.159000 0.408747
0.159500 0.412218
0.160000 0.415540
0.160500 0.418533
0.161000 0.421032
0.161500 0.422907
0.162000 0.424066
0.162500 0.424467
0.163000 0.424119
0.163500 0.423083
0.164000 0.421466
0.164500 0.419415
0.165000 0.417104
0.165500 0.414720
0.166000 0.412452
0.166500 0.410478
0.167000 0.408954
0.167500 0.408004
0.168000 0.407717
0.168500 0.408139
0.169000 0.409277
0.169500 0.411090
0.170000 0.413500
0.170500 0.416389
0.171000 0.419605
0.171500 0.422974
0.172000 0.426305
0.172500 0.429406
0.173000 0.432095
0.173500 0.434213
0.174000 0.435640
0.174500 0.436299
0.175000 0.436165
0.175500 0.435265
0.176000 0.433680
0.176500 0.431533
0.177000 0.428986
0.177500 0.426222
0.178000 0.423438
0.178500 0.420828
0.179000 0.418570
0.179500 0.416820
0.180000 0.415700
0.180500 0.415296
0.181000 0.415652
0.181500 0.416770
0.182000 0.418607
0.182500 0.421081
0.183000 0.424069
0.183500 0.427417
0.184000 0.430943
0.184500 0.434451
0.185000 0.437741
0.185500 0.440622
0.186000 0.442928
0.186500 0.444529
0.187000 0.445344
0.187500 0.445342
0.188000 0.444551
0.188500 0.443052
0.189000 0.440974
0.189500 0.438482
0.190000 0.435767
0.190500 0.433031
0.191000 0.430472
0.191500 0.428272
0.192000 0.426585
0.192500 0.425532
0.193000 0.425194
0.193500 0.425608
0.194000 0.426765
0.194500 0.428613
0.195000 0.431056
0.195500 0.433959
0.196000 0.437154
0.196500 0.440452
0.197000 0.443648
0.197500 0.446541
0.198000 0.448944
0.198500 0.450704
0.199000 0.451707
0.199500 0.451893
0.200000 0.451261
0.200500 0.449564
0.201000 0.447383
0.201500 0.444914
0.202000 0.442354
0.202500 0.439894
0.203000 0.437698
0.203500 0.435906
0.204000 0.434619
0.204500 0.433903
0.205000 0.433787
0.205500 0.434264
0.206000 0.435295
0.206500 0.436811
0.207000 0.438722
0.207500 0.440921
0.208000 0.443289
0.208500 0.445705
0.209000 0.448052
0.209500 0.450225
0.210000 0.452136
0.210500 0.453719
0.211000 0.454935
0.211500 0.455771
0.212000 0.456241
0.212500 0.456380
0.213000 0.456245
0.213500 0.455906
0.214000 0.455441
0.214500 0.454932
0.215000 0.454455
0.215500 0.454081
0.216000 0.453868
0.216500 0.453860
0.217000 0.454085
0.217500 0.454553
0.218000 0.455261
0.218500 0.456187
0.219000 0.457300
0.219500 0.458557
0.220000 0.459909
0.220500 0.461302
0.221000 0.462684
0.221500 0.464005
0.222000 0.465221
0.222500 0.466298
0.223000 0.467210
0.223500 0.467944
0.224000 0.468498
0.224500 0.468881
0.225000 0.469113
0.225500 0.469218
0.226000 0.469229
0.226500 0.469181
0.227000 0.469109
0.227500 0.469048
0.228000 0.469026
0.228500 0.469070
0.229000 0.469198
0.229500 0.469421
0.230000 0.469744
0.230500 0.470163
0.231000 0.470671
0.231500 0.471251
0.232000 0.471887
0.232500 0.472558
0.233000 0.473241
0.233500 0.473916
0.234000 0.474562
0.234500 0.475163
0.235000 0.475707
0.235500 0.476185
0.236000 0.476593
0.236500 0.476933
0.237000 0.477210
0.237500 0.477433
0.238000 0.477614
0.238500 0.477767
0.239000 0.477906
0.239500 0.478046
0.240000 0.478201
0.240500 0.478382
0.241000 0.478598
0.241500 0.478856
0.242000 0.479159
0.242500 0.479507
0.243000 0.479897
0.243500 0.480323
0.244000 0.480779
0.244500 0.481254
0.245000 0.481740
0.245500 0.482227
0.246000 0.482704
0.246500 0.483164
0.247000 0.483600
0.247500 0.484006
0.248000 0.484380
0.248500 0.484722
0.249000 0.485032
0.249500 0.485313
0.250000 0.485571
0.250500 0.485811
0.251000 0.486039
0.251500 0.486264
0.252000 0.486490
0.252500 0.486725
0.253000 0.486973
0.253500 0.487239
0.254000 0.487526
0.254500 0.487833
0.255000 0.488162
0.255500 0.488511
0.256000 0.488878
0.256500 0.489259
0.257000 0.489651
0.257500 0.490048
0.258000 0.490447
0.258500 0.490844
0.259000 0.491236
0.259500 0.491618
0.260000 0.491990
0.260500 0.492350
0.261000 0.492699
0.261500 0.493035
0.262000 0.493362
0.262500 0.493681
0.263000 0.493994
0.263500 0.494305
0.264000 0.494616
0.264500 0.494931
0.265000 0.495251
0.265500 0.495580
0.266000 0.495918
0.266500 0.496268
0.267000 0.496630
0.267500 0.497003
0.268000 0.497388
0.268500 0.497783
0.269000 0.498187
0.269500 0.498598
0.270000 0.499015
0.270500 0.499436
0.271000 0.499859
0.271500 0.500283
0.272000 0.500705
0.272500 0.501126
0.273000 0.501545
0.273500 0.501960
0.274000 0.502373
0.274500 0.502783
0.275000 0.503191
0.275500 0.503598
0.276000 0.504005
0.276500 0.504412
0.277000 0.504821
0.277500 0.505232
0.278000 0.505646
0.278500 0.506064
0.279000 0.506485
0.279500 0.506909
0.280000 0.507337
0.280500 0.507768
0.281000 0.508202
0.281500 0.508637
0.282000 0.509072
0.282500 0.509508
0.283000 0.509944
0.283500 0.510377
0.284000 0.510809
0.284500 0.511238
0.285000 0.511664
0.285500 0.512086
0.286000 0.512505
0.286500 0.512922
0.287000 0.513335
0.287500 0.513745
0.288000 0.514153
0.288500 0.514560
0.289000 0.514965
0.289500 0.515369
0.290000 0.515772
0.290500 0.516176
0.291000 0.516579
0.291500 0.516983
0.292000 0.517387
0.292500 0.517791
0.293000 0.518195
0.293500 0.518599
0.294000 0.519003
0.294500 0.519406
0.295000 0.519808
0.295500 0.520209
0.296000 0.520609
0.296500 0.521006
0.297000 0.521402
0.297500 0.521796
0.298000 0.522189
0.298500 0.522579
0.299000 0.522967
0.299500 0.523354
0.300000 0.523739
0.300500 0.524122
0.301000 0.524504
0.301500 0.524885
0.302000 0.525265
0.302500 0.525644
0.303000 0.526022
0.303500 0.526400
0.304000 0.526776
0.304500 0.527152
0.305000 0.527526
0.305500 0.527899
0.306000 0.528270
0.306500 0.528640
0.307000 0.529008
0.307500 0.529373
0.308000 0.529737
0.308500 0.530098
0.309000 0.530456
0.309500 0.530811
0.310000 0.531164
0.310500 0.531514
0.311000 0.531861
0.311500 0.532205
0.312000 0.532547
0.312500 0.532886
0.313000 0.533223
0.313500 0.533558
0.314000 0.533891
0.314500 0.534222
0.315000 0.534551
0.315500 0.534879
0.316000 0.535205
0.316500 0.535531
0.317000 0.535855
0.317500 0.536178
0.318000 0.536500
0.318500 0.536822
0.319000 0.537142
0.319500 0.537462
0.320000 0.537782
0.320500 0.538100
0.321000 0.538418
0.321500 0.538736
0.322000 0.539052
0.322500 0.539369
0.323000 0.539684
0.323500 0.540000
0.324000 0.540315
0.324500 0.540630
0.325000 0.540944
0.325500 0.541258
0.326000 0.541572
0.326500 0.541886
0.327000 0.542200
0.327500 0.542513
0.328000 0.542826
0.328500 0.543140
0.329000 0.543453
0.329500 0.543765
0.330000 0.544078
0.330500 0.544390
0.331000 0.544702
0.331500 0.545014
0.332000 0.545325
0.332500 0.545635
0.333000 0.545945
0.333500 0.546254
0.334000 0.546563
0.334500 0.546871
0.335000 0.547179
0.335500 0.547486
0.336000 0.547793
0.336500 0.548098
0.337000 0.548404
0.337500 0.548709
0.338000 0.549013
0.338500 0.549318
0.339000 0.549622
0.339500 0.549925
0.340000 0.550229
0.340500 0.550533
0.341000 0.550837
0.341500 0.551141
0.342000 0.551445
0.342500 0.551749
0.343000 0.552054
0.343500 0.552359
0.344000 0.552665
0.344500 0.552972
0.345000 0.553279
0.345500 0.553587
0.346000 0.553896
0.346500 0.554205
0.347000 0.554516
0.347500 0.554828
0.348000 0.555142
0.348500 0.555456
0.349000 0.555772
0.349500 0.556089
0.350000 0.556408
0.350500 0.556728
0.351000 0.557049
0.351500 0.557373
0.352000 0.557698
0.352500 0.558024
0.353000 0.558353
0.353500 0.558683
0.354000 0.559015
0.354500 0.559348
0.355000 0.559684
0.355500 0.560021
0.356000 0.560359
0.356500 0.560700
0.357000 0.561042
0.357500 0.561386
0.358000 0.561732
0.358500 0.562079
0.359000 0.562428
0.359500 0.562779
0.360000 0.563131
0.360500 0.563484
0.361000 0.563840
0.361500 0.564197
0.362000 0.564555
0.362500 0.564915
0.363000 0.565276
0.363500 0.565639
0.364000 0.566003
0.364500 0.566368
0.365000 0.566735
0.365500 0.567103
0.366000 0.567472
0.366500 0.567843
0.367000 0.568215
0.367500 0.568588
0.368000 0.568962
0.368500 0.569338
0.369000 0.569714
0.369500 0.570092
0.370000 0.570470
0.370500 0.570850
0.371000 0.571230
0.371500 0.571611
0.372000 0.571993
0.372500 0.572376
0.373000 0.572760
0.373500 0.573144
0.374000 0.573529
0.374500 0.573914
0.375000 0.574300
0.375500 0.574687
0.376000 0.575073
0.376500 0.575461
0.377000 0.575848
0.377500 0.576236
0.378000 0.576624
0.378500 0.577012
0.379000 0.577400
0.379500 0.577788
0.380000 0.578176
0.380500 0.578564
0.381000 0.578952
0.381500 0.579340
0.382000 0.579727
0.382500 0.580114
0.383000 0.580501
0.383500 0.580887
0.384000 0.581273
0.384500 0.581659
0.385000 0.582044
0.385500 0.582428
0.386000 0.582812
0.386500 0.583196
0.387000 0.583578
0.387500 0.583960
0.388000 0.584342
0.388500 0.584723
0.389000 0.585103
0.389500 0.585482
0.390000 0.585860
0.390500 0.586238
0.391000 0.586615
0.391500 0.586992
0.392000 0.587367
0.392500 0.587742
0.393000 0.588116
0.393500 0.588489
0.394000 0.588862
0.394500 0.589234
0.395000 0.589605
0.395500 0.589976
0.396000 0.590345
0.396500 0.590714
0.397000 0.591083
0.397500 0.591451
0.398000 0.591818
0.398500 0.592184
0.399000 0.592550
0.399500 0.592915
0.400000 0.593280
0.400500 0.593644
0.401000 0.594007
0.401500 0.594370
0.402000 0.594732
0.402500 0.595094
0.403000 0.595455
0.403500 0.595816
0.404000 0.596176
0.404500 0.596535
0.405000 0.596894
0.405500 0.597252
0.406000 0.597610
0.406500 0.597968
0.407000 0.598324
0.407500 0.598681
0.408000 0.599036
0.408500 0.599391
0.409000 0.599746
0.409500 0.600100
0.410000 0.600453
0.410500 0.600805
0.411000 0.601157
0.411500 0.601509
0.412000 0.601859
0.412500 0.602209
0.413000 0.602558
0.413500 0.602906
0.414000 0.603254
0.414500 0.603601
0.415000 0.603947
0.415500 0.604292
0.416000 0.604637
0.416500 0.604980
0.417000 0.605323
0.417500 0.605665
0.418000 0.606005
0.418500 0.606345
0.419000 0.606684
0.419500 0.607022
0.420000 0.607359
0.420500 0.607695
0.421000 0.608031
0.421500 0.608365
0.422000 0.608698
0.422500 0.609030
0.423000 0.609361
0.423500 0.609691
0.424000 0.610020
0.424500 0.610348
0.425000 0.610675
0.425500 0.611001
0.426000 0.611326
0.426500 0.611650
0.427000 0.611973
0.427500 0.612295
0.428000 0.612616
0.428500 0.612937
0.429000 0.613256
0.429500 0.613574
0.430000 0.613891
0.430500 0.614208
0.431000 0.614523
0.431500 0.614838
0.432000 0.615152
0.432500 0.615465
0.433000 0.615777
0.433500 0.616089
0.434000 0.616399
0.434500 0.616709
0.435000 0.617019
0.435500 0.617327
0.436000 0.617635
0.436500 0.617942
0.437000 0.618249
0.437500 0.618555
0.438000 0.618861
0.438500 0.619166
0.439000 0.619470
0.439500 0.619774
0.440000 0.620078
0.440500 0.620381
0.441000 0.620684
0.441500 0.620986
0.442000 0.621288
0.442500 0.621589
0.443000 0.621891
0.443500 0.622192
0.444000 0.622492
0.444500 0.622793
0.445000 0.623093
0.445500 0.623393
0.446000 0.623692
0.446500 0.623991
0.447000 0.624291
0.447500 0.624590
0.448000 0.624888
0.448500 0.625187
0.449000 0.625486
0.449500 0.625784
0.450000 0.626082
0.450500 0.626380
0.451000 0.626678
0.451500 0.626976
0.452000 0.627274
0.452500 0.627571
0.453000 0.627869
0.453500 0.628166
0.454000 0.628463
0.454500 0.628761
0.455000 0.629058
0.455500 0.629355
0.456000 0.629652
0.456500 0.629948
0.457000 0.630245
0.457500 0.630542
0.458000 0.630838
0.458500 0.631134
0.459000 0.631430
0.459500 0.631727
0.460000 0.632022
0.460500 0.632318
0.461000 0.632614
0.461500 0.632909
0.462000 0.633205
0.462500 0.633500
0.463000 0.633795
0.463500 0.634089
0.464000 0.634384
0.464500 0.634678
0.465000 0.634973
0.465500 0.635267
0.466000 0.635560
0.466500 0.635854
0.467000 0.636147
0.467500 0.636440
0.468000 0.636733
0.468500 0.637025
0.469000 0.637318
0.469500 0.637610
0.470000 0.637901
0.470500 0.638193
0.471000 0.638484
0.471500 0.638775
0.472000 0.639066
0.472500 0.639356
0.473000 0.639646
0.473500 0.639936
0.474000 0.640225
0.474500 0.640514
0.475000 0.640803
0.475500 0.641092
0.476000 0.641380
0.476500 0.641668
0.477000 0.641956
0.477500 0.642243
0.478000 0.642530
0.478500 0.642817
0.479000 0.643103
0.479500 0.643390
0.480000 0.643675
0.480500 0.643961
0.481000 0.644246
0.481500 0.644531
0.482000 0.644816
0.482500 0.645100
0.483000 0.645384
0.483500 0.645668
0.484000 0.645951
0.484500 0.646234
0.485000 0.646517
0.485500 0.646799
0.486000 0.647081
0.486500 0.647363
0.487000 0.647645
0.487500 0.647926
0.488000 0.648206
0.488500 0.648487
0.489000 0.648767
0.489500 0.649046
0.490000 0.649326
0.490500 0.649605
0.491000 0.649883
0.491500 0.650161
0.492000 0.650439
0.492500 0.650716
0.493000 0.650993
0.493500 0.651269
0.494000 0.651545
0.494500 0.651821
0.495000 0.652096
0.495500 0.652370
0.496000 0.652644
0.496500 0.652918
0.497000 0.653191
0.497500 0.653463
0.498000 0.653735
0.498500 0.654006
0.499000 0.654276
0.499500 0.654546
0.500000 0.654816
0.509900 0.660234
0.519800 0.665357
0.529700 0.670055
0.539600 0.674231
0.549500 0.677830
0.559400 0.680867
0.569300 0.683461
0.579200 0.685811
0.589100 0.688094
0.599000 0.690376
0.608900 0.692610
0.618800 0.694668
0.628700 0.696376
0.638600 0.697604
0.648500 0.698384
0.658400 0.698915
0.668300 0.699447
0.678200 0.700180
0.688100 0.701255
0.698000 0.702774
0.707900 0.704794
0.717800 0.707302
0.727700 0.710202
0.737600 0.713310
0.747500 0.716383
0.757400 0.719214
0.767300 0.721730
0.777200 0.724010
0.787100 0.726160
0.797000 0.728203
0.806900 0.730118
0.816800 0.731980
0.826700 0.733992
0.836600 0.736365
0.846500 0.739178
0.856400 0.742368
0.866300 0.745829
0.876200 0.749473
0.886100 0.753189
0.896000 0.756801
0.905900 0.760116
0.915800 0.763027
0.925700 0.765573
0.935600 0.767924
0.945500 0.770355
0.955400 0.773157
0.965300 0.776498
0.975200 0.780322
0.985100 0.784372
0.995000 0.788351
1.004900 0.792100
1.014800 0.795647
1.024700 0.799108
1.034600 0.802599
1.044500 0.806192
1.054400 0.809907
1.064300 0.813732
1.074200 0.817710
1.084100 0.821962
1.094000 0.826588
1.103900 0.831518
1.113800 0.836470
1.123700 0.841048
1.133600 0.844899
1.143500 0.847830
1.153400 0.849855
1.163300 0.851163
1.173200 0.852043
1.183100 0.852808
1.193000 0.853715
1.202900 0.854933
1.212800 0.856540
1.222700 0.858549
1.232600 0.860912
1.242500 0.863528
1.252400 0.866304
1.262300 0.869194
1.272200 0.872180
1.282100 0.875200
1.292000 0.878153
1.301900 0.880960
1.311800 0.883601
1.321700 0.886110
1.331600 0.888566
1.341500 0.891040
1.351400 0.893542
1.361300 0.895996
1.371200 0.898243
1.381100 0.900078
1.391000 0.901322
1.400900 0.901911
1.410800 0.901962
1.420700 0.901779
1.430600 0.901745
1.440500 0.902133
1.450400 0.903002
1.460300 0.904248
1.470200 0.905759
1.480100 0.907511
1.490000 0.909546
1.499900 0.911898
