# Random transverse-field Ising model
# L=22, J=1=gamma, W_J=0.2, W=3.5
# High-T dynamical energy conductivity sigma^E(omega); via MCLM
# omega/J sigma^E(omega)

0.000000 0.018663
0.000250 0.018494
0.000500 0.018180
0.000750 0.018094
0.001000 0.018433
0.001250 0.019067
0.001500 0.019610
0.001750 0.019774
0.002000 0.019707
0.002250 0.019835
0.002500 0.020424
0.002750 0.021341
0.003000 0.022119
0.003250 0.022364
0.003500 0.022203
0.003750 0.022149
0.004000 0.022564
0.004250 0.023339
0.004500 0.023996
0.004750 0.024146
0.005000 0.023933
0.005250 0.023884
0.005500 0.024366
0.005750 0.025244
0.006000 0.025964
0.006250 0.026086
0.006500 0.025813
0.006750 0.025763
0.007000 0.026312
0.007250 0.027249
0.007500 0.027939
0.007750 0.027953
0.008000 0.027584
0.008250 0.027512
0.008500 0.028102
0.008750 0.029095
0.009000 0.029815
0.009250 0.029821
0.009500 0.029397
0.009750 0.029229
0.010000 0.029658
0.010250 0.030337
0.010500 0.030551
0.010750 0.029994
0.011000 0.029150
0.011250 0.028761
0.011500 0.029157
0.011750 0.030024
0.012000 0.030633
0.012250 0.030554
0.012500 0.030182
0.012750 0.030247
0.013000 0.031047
0.013250 0.032208
0.013500 0.032989
0.013750 0.032992
0.014000 0.032596
0.014250 0.032566
0.014500 0.033298
0.014750 0.034462
0.015000 0.035278
0.015250 0.035341
0.015500 0.035128
0.015750 0.035457
0.016000 0.036636
0.016250 0.038140
0.016500 0.038997
0.016750 0.038788
0.017000 0.038148
0.017250 0.038049
0.017500 0.038822
0.017750 0.039901
0.018000 0.040371
0.018250 0.039984
0.018500 0.039487
0.018750 0.039829
0.019000 0.041303
0.019250 0.043304
0.019500 0.044752
0.019750 0.045129
0.020000 0.045070
0.020250 0.045555
0.020500 0.046714
0.020750 0.047598
0.021000 0.047159
0.021250 0.045511
0.021500 0.043843
0.021750 0.043190
0.022000 0.043605
0.022250 0.044204
0.022500 0.043978
0.022750 0.042883
0.023000 0.041882
0.023250 0.041898
0.023500 0.043030
0.023750 0.044475
0.024000 0.045180
0.024250 0.045009
0.024500 0.044915
0.024750 0.045777
0.025000 0.047429
0.025250 0.048663
0.025500 0.048391
0.025750 0.046983
0.026000 0.045828
0.026250 0.045837
0.026500 0.046773
0.026750 0.047548
0.027000 0.047302
0.027250 0.046388
0.027500 0.045937
0.027750 0.046648
0.028000 0.048138
0.028250 0.049211
0.028500 0.049058
0.028750 0.048253
0.029000 0.048025
0.029250 0.048908
0.029500 0.050284
0.029750 0.050983
0.030000 0.050471
0.030250 0.049384
0.030500 0.048865
0.030750 0.049488
0.031000 0.050773
0.031250 0.051618
0.031500 0.051352
0.031750 0.050396
0.032000 0.049873
0.032250 0.050526
0.032500 0.051987
0.032750 0.053006
0.033000 0.052718
0.033250 0.051688
0.033500 0.051219
0.033750 0.051925
0.034000 0.053227
0.034250 0.053961
0.034500 0.053564
0.034750 0.052670
0.035000 0.052467
0.035250 0.053503
0.035500 0.055047
0.035750 0.055609
0.036000 0.054567
0.036250 0.052968
0.036500 0.052247
0.036750 0.052813
0.037000 0.053833
0.037250 0.054053
0.037500 0.053148
0.037750 0.052087
0.038000 0.052020
0.038250 0.053152
0.038500 0.054577
0.038750 0.055144
0.039000 0.054759
0.039250 0.054526
0.039500 0.055492
0.039750 0.057564
0.040000 0.059425
0.040250 0.059631
0.040500 0.058174
0.040750 0.056544
0.041000 0.056218
0.041250 0.057516
0.041500 0.059447
0.041750 0.060495
0.042000 0.060253
0.042250 0.059928
0.042500 0.060825
0.042750 0.062963
0.043000 0.065034
0.043250 0.065608
0.043500 0.064599
0.043750 0.063348
0.044000 0.063224
0.044250 0.064312
0.044500 0.065312
0.044750 0.064883
0.045000 0.063283
0.045250 0.062091
0.045500 0.062544
0.045750 0.064568
0.046000 0.066935
0.046250 0.068349
0.046500 0.068766
0.046750 0.069484
0.047000 0.071850
0.047250 0.075917
0.047500 0.080156
0.047750 0.082540
0.048000 0.082467
0.048250 0.081423
0.048500 0.081218
0.048750 0.081890
0.049000 0.081727
0.049250 0.079346
0.049500 0.075511
0.049750 0.072338
0.050000 0.071183
0.050250 0.071696
0.050500 0.072253
0.050750 0.071572
0.051000 0.070217
0.051250 0.069886
0.051500 0.071587
0.051750 0.074684
0.052000 0.077164
0.052250 0.077437
0.052500 0.076224
0.052750 0.075531
0.053000 0.076234
0.053250 0.077377
0.053500 0.077379
0.053750 0.075821
0.054000 0.073965
0.054250 0.073536
0.054500 0.075146
0.054750 0.077704
0.055000 0.079203
0.055250 0.078719
0.055500 0.077474
0.055750 0.077317
0.056000 0.078685
0.056250 0.080144
0.056500 0.079858
0.056750 0.077750
0.057000 0.075645
0.057250 0.075309
0.057500 0.076926
0.057750 0.078969
0.058000 0.079504
0.058250 0.078272
0.058500 0.076957
0.058750 0.077175
0.059000 0.078832
0.059250 0.080195
0.059500 0.079609
0.059750 0.077352
0.060000 0.075332
0.060250 0.075188
0.060500 0.076981
0.060750 0.079168
0.061000 0.079893
0.061250 0.078975
0.061500 0.078143
0.061750 0.079186
0.062000 0.082337
0.062250 0.085996
0.062500 0.087982
0.062750 0.087868
0.063000 0.087426
0.063250 0.088289
0.063500 0.090046
0.063750 0.090792
0.064000 0.089247
0.064250 0.086124
0.064500 0.083480
0.064750 0.082811
0.065000 0.083728
0.065250 0.084261
0.065500 0.082884
0.065750 0.080343
0.066000 0.078692
0.066250 0.079080
0.066500 0.080822
0.066750 0.082080
0.067000 0.081678
0.067250 0.080338
0.067500 0.079826
0.067750 0.081011
0.068000 0.082841
0.068250 0.083196
0.068500 0.081265
0.068750 0.078641
0.069000 0.077577
0.069250 0.079057
0.069500 0.082204
0.069750 0.084723
0.070000 0.084770
0.070250 0.082944
0.070500 0.081424
0.070750 0.081477
0.071000 0.082411
0.071250 0.082582
0.071500 0.081223
0.071750 0.079225
0.072000 0.078230
0.072250 0.078999
0.072500 0.080650
0.072750 0.081446
0.073000 0.080588
0.073250 0.079155
0.073500 0.079031
0.073750 0.081106
0.074000 0.084428
0.074250 0.086754
0.074500 0.086662
0.074750 0.085237
0.075000 0.084766
0.075250 0.086287
0.075500 0.088651
0.075750 0.089614
0.076000 0.088432
0.076250 0.086884
0.076500 0.087155
0.076750 0.089658
0.077000 0.092574
0.077250 0.093260
0.077500 0.090996
0.077750 0.087815
0.078000 0.086104
0.078250 0.086350
0.078500 0.086953
0.078750 0.085961
0.079000 0.083442
0.079250 0.081407
0.079500 0.081579
0.079750 0.083988
0.080000 0.086958
0.080250 0.088376
0.080500 0.087750
0.080750 0.086697
0.081000 0.087096
0.081250 0.089114
0.081500 0.090907
0.081750 0.090451
0.082000 0.088017
0.082250 0.085919
0.082500 0.086058
0.082750 0.088443
0.083000 0.091303
0.083250 0.092576
0.083500 0.091992
0.083750 0.091328
0.084000 0.092328
0.084250 0.094752
0.084500 0.096429
0.084750 0.095642
0.085000 0.093401
0.085250 0.092275
0.085500 0.093697
0.085750 0.096812
0.086000 0.099128
0.086250 0.098893
0.086500 0.097108
0.086750 0.096373
0.087000 0.098237
0.087250 0.101876
0.087500 0.104611
0.087750 0.104408
0.088000 0.102238
0.088250 0.100965
0.088500 0.102380
0.088750 0.105677
0.089000 0.108012
0.089250 0.107287
0.089500 0.104669
0.089750 0.102982
0.090000 0.103491
0.090250 0.105024
0.090500 0.105540
0.090750 0.104263
0.091000 0.102302
0.091250 0.101556
0.091500 0.102737
0.091750 0.104444
0.092000 0.104542
0.092250 0.102493
0.092500 0.099942
0.092750 0.099146
0.093000 0.100980
0.093250 0.104169
0.093500 0.106312
0.093750 0.106151
0.094000 0.104840
0.094250 0.104656
0.094500 0.106575
0.094750 0.109253
0.095000 0.110401
0.095250 0.109175
0.095500 0.106997
0.095750 0.106093
0.096000 0.107246
0.096250 0.109029
0.096500 0.109323
0.096750 0.107589
0.097000 0.105509
0.097250 0.105297
0.097500 0.107487
0.097750 0.110416
0.098000 0.111801
0.098250 0.111151
0.098500 0.110356
0.098750 0.111611
0.099000 0.114997
0.099250 0.118102
0.099500 0.118314
0.099750 0.115862
0.100000 0.113552
0.100250 0.113490
0.100500 0.115017
0.100750 0.115507
0.101000 0.113201
0.101250 0.109194
0.101500 0.106308
0.101750 0.106506
0.102000 0.109423
0.102250 0.112476
0.102500 0.112987
0.102750 0.111224
0.103000 0.110034
0.103250 0.111510
0.103500 0.115002
0.103750 0.117586
0.104000 0.116934
0.104250 0.114128
0.104500 0.112376
0.104750 0.113652
0.105000 0.117156
0.105250 0.119994
0.105500 0.119921
0.105750 0.117926
0.106000 0.117131
0.106250 0.119563
0.106500 0.124397
0.106750 0.128428
0.107000 0.129060
0.107250 0.127413
0.107500 0.126953
0.107750 0.129633
0.108000 0.134073
0.108250 0.136770
0.108500 0.135863
0.108750 0.133395
0.109000 0.132647
0.109250 0.134395
0.109500 0.136278
0.109750 0.135489
0.110000 0.131835
0.110250 0.127663
0.110500 0.125393
0.110750 0.125177
0.111000 0.124921
0.111250 0.122736
0.111500 0.118919
0.111750 0.115587
0.112000 0.114871
0.112250 0.117008
0.112500 0.119823
0.112750 0.120395
0.113000 0.117925
0.113250 0.114528
0.113500 0.112793
0.113750 0.113210
0.114000 0.114020
0.114250 0.113240
0.114500 0.110717
0.114750 0.108240
0.115000 0.107747
0.115250 0.109372
0.115500 0.111251
0.115750 0.111374
0.116000 0.109724
0.116250 0.108408
0.116500 0.109612
0.116750 0.113605
0.117000 0.118379
0.117250 0.121148
0.117500 0.120941
0.117750 0.119616
0.118000 0.119709
0.118250 0.121537
0.118500 0.122855
0.118750 0.121423
0.119000 0.117702
0.119250 0.114415
0.119500 0.113790
0.119750 0.115752
0.120000 0.118264
0.120250 0.119187
0.120500 0.118173
0.120750 0.117093
0.121000 0.118187
0.121250 0.121593
0.121500 0.124802
0.121750 0.125100
0.122000 0.123001
0.122250 0.121731
0.122500 0.123610
0.122750 0.127995
0.123000 0.131744
0.123250 0.132064
0.123500 0.129617
0.123750 0.127788
0.124000 0.129073
0.124250 0.132928
0.124500 0.136361
0.124750 0.136954
0.125000 0.135703
0.125250 0.135896
0.125500 0.139447
0.125750 0.144776
0.126000 0.147757
0.126250 0.145721
0.126500 0.140604
0.126750 0.136572
0.127000 0.135570
0.127250 0.135862
0.127500 0.134079
0.127750 0.129163
0.128000 0.123680
0.128250 0.120936
0.128500 0.122207
0.128750 0.126062
0.129000 0.129214
0.129250 0.129278
0.129500 0.127307
0.129750 0.126388
0.130000 0.128132
0.130250 0.131151
0.130500 0.132544
0.130750 0.131088
0.131000 0.128675
0.131250 0.128101
0.131500 0.130032
0.131750 0.132304
0.132000 0.132069
0.132250 0.128785
0.132500 0.124851
0.132750 0.123309
0.133000 0.125339
0.133250 0.129548
0.133500 0.133082
0.133750 0.134001
0.134000 0.133181
0.134250 0.133442
0.134500 0.136383
0.134750 0.140455
0.135000 0.142457
0.135250 0.141673
0.135500 0.141203
0.135750 0.144410
0.136000 0.151676
0.136250 0.159621
0.136500 0.163250
0.136750 0.161162
0.137000 0.157343
0.137250 0.156392
0.137500 0.159314
0.137750 0.163434
0.138000 0.165512
0.138250 0.165518
0.138500 0.166514
0.138750 0.170629
0.139000 0.176064
0.139250 0.178326
0.139500 0.174809
0.139750 0.167687
0.140000 0.161468
0.140250 0.158409
0.140500 0.156960
0.140750 0.154109
0.141000 0.148811
0.141250 0.143117
0.141500 0.140187
0.141750 0.141450
0.142000 0.145330
0.142250 0.148141
0.142500 0.147432
0.142750 0.144773
0.143000 0.143858
0.143250 0.146608
0.143500 0.151439
0.143750 0.154475
0.144000 0.153508
0.144250 0.150781
0.144500 0.150522
0.144750 0.155000
0.145000 0.162996
0.145250 0.170715
0.145500 0.175659
0.145750 0.180100
0.146000 0.188371
0.146250 0.201501
0.146500 0.214616
0.146750 0.219279
0.147000 0.211723
0.147250 0.197375
0.147500 0.184431
0.147750 0.176725
0.148000 0.172607
0.148250 0.167864
0.148500 0.160636
0.148750 0.153395
0.149000 0.149526
0.149250 0.149734
0.149500 0.151384
0.149750 0.150685
0.150000 0.146542
0.150250 0.141559
0.150500 0.138770
0.150750 0.138664
0.151000 0.139386
0.151250 0.139070
0.151500 0.137523
0.151750 0.136279
0.152000 0.137225
0.152250 0.140405
0.152500 0.143628
0.152750 0.144613
0.153000 0.143138
0.153250 0.141339
0.153500 0.141947
0.153750 0.145551
0.154000 0.149602
0.154250 0.150708
0.154500 0.148669
0.154750 0.146966
0.155000 0.149031
0.155250 0.155366
0.155500 0.163274
0.155750 0.168720
0.156000 0.169722
0.156250 0.168452
0.156500 0.168774
0.156750 0.171653
0.157000 0.173968
0.157250 0.172078
0.157500 0.166446
0.157750 0.161167
0.158000 0.159163
0.158250 0.159311
0.158500 0.157872
0.158750 0.152954
0.159000 0.146933
0.159250 0.143666
0.159500 0.144838
0.159750 0.148792
0.160000 0.151640
0.160250 0.150838
0.160500 0.148004
0.160750 0.146705
0.161000 0.148270
0.161250 0.150479
0.161500 0.149906
0.161750 0.145733
0.162000 0.140696
0.162250 0.138297
0.162500 0.139737
0.162750 0.142921
0.163000 0.143984
0.163250 0.141164
0.163500 0.136858
0.163750 0.134760
0.164000 0.136283
0.164250 0.139607
0.164500 0.141255
0.164750 0.139601
0.165000 0.136716
0.165250 0.135892
0.165500 0.138242
0.165750 0.141725
0.166000 0.143054
0.166250 0.141217
0.166500 0.138685
0.166750 0.138812
0.167000 0.142784
0.167250 0.148547
0.167500 0.152222
0.167750 0.151902
0.168000 0.149853
0.168250 0.149810
0.168500 0.153069
0.168750 0.157454
0.169000 0.159586
0.169250 0.158453
0.169500 0.156495
0.169750 0.157067
0.170000 0.161116
0.170250 0.166375
0.170500 0.169801
0.170750 0.170935
0.171000 0.172536
0.171250 0.177537
0.171500 0.185124
0.171750 0.189870
0.172000 0.186623
0.172250 0.176989
0.172500 0.167346
0.172750 0.162010
0.173000 0.160533
0.173250 0.159065
0.173500 0.154348
0.173750 0.147305
0.174000 0.141630
0.174250 0.139877
0.174500 0.141733
0.174750 0.144698
0.175000 0.146203
0.175250 0.145746
0.175500 0.145405
0.175750 0.147810
0.176000 0.153183
0.176250 0.158494
0.176500 0.160204
0.176750 0.158616
0.177000 0.157691
0.177250 0.160417
0.177500 0.165674
0.177750 0.168816
0.178000 0.166406
0.178250 0.160652
0.178500 0.156689
0.178750 0.157396
0.179000 0.161685
0.179250 0.165631
0.179500 0.165993
0.179750 0.163645
0.180000 0.162420
0.180250 0.164791
0.180500 0.169187
0.180750 0.171105
0.181000 0.167895
0.181250 0.162111
0.181500 0.158501
0.181750 0.159404
0.182000 0.163172
0.182250 0.165565
0.182500 0.164072
0.182750 0.161034
0.183000 0.160786
0.183250 0.165284
0.183500 0.172504
0.183750 0.177718
0.184000 0.178175
0.184250 0.176683
0.184500 0.178350
0.184750 0.185501
0.185000 0.195758
0.185250 0.203399
0.185500 0.204900
0.185750 0.203396
0.186000 0.204664
0.186250 0.210493
0.186500 0.216684
0.186750 0.216812
0.187000 0.209332
0.187250 0.199144
0.187500 0.191640
0.187750 0.187814
0.188000 0.184744
0.188250 0.179572
0.188500 0.172559
0.188750 0.166668
0.189000 0.164709
0.189250 0.166684
0.189500 0.169598
0.189750 0.170195
0.190000 0.168395
0.190250 0.167360
0.190500 0.170135
0.190750 0.176488
0.191000 0.182506
0.191250 0.183825
0.191500 0.180265
0.191750 0.176025
0.192000 0.175052
0.192250 0.177398
0.192500 0.179611
0.192750 0.178473
0.193000 0.174639
0.193250 0.172025
0.193500 0.173754
0.193750 0.179130
0.194000 0.183835
0.194250 0.184002
0.194500 0.180817
0.194750 0.178961
0.195000 0.181145
0.195250 0.185365
0.195500 0.186663
0.195750 0.182336
0.196000 0.175031
0.196250 0.169569
0.196500 0.168169
0.196750 0.169012
0.197000 0.168456
0.197250 0.165007
0.197500 0.160894
0.197750 0.159663
0.198000 0.162760
0.198250 0.168018
0.198500 0.171072
0.198750 0.169511
0.199000 0.165417
0.199250 0.162760
0.199500 0.163226
0.199750 0.165006
0.200000 0.165222
0.200250 0.163297
0.200500 0.161675
0.200750 0.162369
0.201000 0.165432
0.201250 0.169212
0.201500 0.172066
0.201750 0.173744
0.202000 0.175118
0.202250 0.176929
0.202500 0.179010
0.202750 0.180599
0.203000 0.181174
0.203250 0.180866
0.203500 0.180199
0.203750 0.179572
0.204000 0.179011
0.204250 0.178326
0.204500 0.177408
0.204750 0.176344
0.205000 0.175328
0.205250 0.174494
0.205500 0.173863
0.205750 0.173402
0.206000 0.173098
0.206250 0.172989
0.206500 0.173113
0.206750 0.173463
0.207000 0.173979
0.207250 0.174587
0.207500 0.175235
0.207750 0.175910
0.208000 0.176621
0.208250 0.177375
0.208500 0.178168
0.208750 0.178991
0.209000 0.179839
0.209250 0.180720
0.209500 0.181645
0.209750 0.182620
0.210000 0.183643
0.210250 0.184706
0.210500 0.185802
0.210750 0.186926
0.211000 0.188077
0.211250 0.189249
0.211500 0.190438
0.211750 0.191636
0.212000 0.192839
0.212250 0.194039
0.212500 0.195225
0.212750 0.196382
0.213000 0.197489
0.213250 0.198524
0.213500 0.199461
0.213750 0.200281
0.214000 0.200968
0.214250 0.201514
0.214500 0.201919
0.214750 0.202190
0.215000 0.202340
0.215250 0.202385
0.215500 0.202344
0.215750 0.202236
0.216000 0.202077
0.216250 0.201886
0.216500 0.201679
0.216750 0.201471
0.217000 0.201279
0.217250 0.201114
0.217500 0.200990
0.217750 0.200915
0.218000 0.200897
0.218250 0.200939
0.218500 0.201044
0.218750 0.201210
0.219000 0.201435
0.219250 0.201715
0.219500 0.202043
0.219750 0.202413
0.220000 0.202816
0.220250 0.203244
0.220500 0.203689
0.220750 0.204144
0.221000 0.204600
0.221250 0.205051
0.221500 0.205490
0.221750 0.205913
0.222000 0.206314
0.222250 0.206690
0.222500 0.207038
0.222750 0.207355
0.223000 0.207641
0.223250 0.207895
0.223500 0.208117
0.223750 0.208308
0.224000 0.208469
0.224250 0.208602
0.224500 0.208709
0.224750 0.208792
0.225000 0.208855
0.225250 0.208900
0.225500 0.208930
0.225750 0.208948
0.226000 0.208957
0.226250 0.208960
0.226500 0.208960
0.226750 0.208959
0.227000 0.208958
0.227250 0.208961
0.227500 0.208968
0.227750 0.208981
0.228000 0.209001
0.228250 0.209029
0.228500 0.209067
0.228750 0.209114
0.229000 0.209173
0.229250 0.209243
0.229500 0.209325
0.229750 0.209421
0.230000 0.209530
0.230250 0.209653
0.230500 0.209790
0.230750 0.209942
0.231000 0.210108
0.231250 0.210288
0.231500 0.210483
0.231750 0.210690
0.232000 0.210911
0.232250 0.211144
0.232500 0.211388
0.232750 0.211643
0.233000 0.211908
0.233250 0.212182
0.233500 0.212463
0.233750 0.212751
0.234000 0.213044
0.234250 0.213341
0.234500 0.213641
0.234750 0.213942
0.235000 0.214243
0.235250 0.214542
0.235500 0.214837
0.235750 0.215128
0.236000 0.215413
0.236250 0.215691
0.236500 0.215960
0.236750 0.216220
0.237000 0.216470
0.237250 0.216710
0.237500 0.216940
0.237750 0.217158
0.238000 0.217366
0.238250 0.217563
0.238500 0.217750
0.238750 0.217928
0.239000 0.218097
0.239250 0.218257
0.239500 0.218410
0.239750 0.218556
0.240000 0.218695
0.240250 0.218829
0.240500 0.218958
0.240750 0.219082
0.241000 0.219203
0.241250 0.219321
0.241500 0.219437
0.241750 0.219550
0.242000 0.219663
0.242250 0.219775
0.242500 0.219888
0.242750 0.220001
0.243000 0.220116
0.243250 0.220234
0.243500 0.220355
0.243750 0.220480
0.244000 0.220610
0.244250 0.220746
0.244500 0.220889
0.244750 0.221039
0.245000 0.221197
0.245250 0.221364
0.245500 0.221541
0.245750 0.221728
0.246000 0.221925
0.246250 0.222134
0.246500 0.222355
0.246750 0.222587
0.247000 0.222831
0.247250 0.223088
0.247500 0.223356
0.247750 0.223636
0.248000 0.223929
0.248250 0.224232
0.248500 0.224547
0.248750 0.224872
0.249000 0.225206
0.249250 0.225550
0.249500 0.225901
0.249750 0.226260
0.250000 0.226625
0.250250 0.226995
0.250500 0.227368
0.250750 0.227743
0.251000 0.228120
0.251250 0.228496
0.251500 0.228869
0.251750 0.229239
0.252000 0.229604
0.252250 0.229961
0.252500 0.230310
0.252750 0.230648
0.253000 0.230975
0.253250 0.231287
0.253500 0.231584
0.253750 0.231864
0.254000 0.232126
0.254250 0.232369
0.254500 0.232590
0.254750 0.232790
0.255000 0.232968
0.255250 0.233122
0.255500 0.233252
0.255750 0.233358
0.256000 0.233440
0.256250 0.233497
0.256500 0.233531
0.256750 0.233541
0.257000 0.233529
0.257250 0.233494
0.257500 0.233439
0.257750 0.233364
0.258000 0.233270
0.258250 0.233159
0.258500 0.233033
0.258750 0.232891
0.259000 0.232737
0.259250 0.232572
0.259500 0.232397
0.259750 0.232214
0.260000 0.232024
0.260250 0.231829
0.260500 0.231630
0.260750 0.231429
0.261000 0.231227
0.261250 0.231025
0.261500 0.230825
0.261750 0.230627
0.262000 0.230432
0.262250 0.230242
0.262500 0.230057
0.262750 0.229879
0.263000 0.229707
0.263250 0.229543
0.263500 0.229387
0.263750 0.229240
0.264000 0.229101
0.264250 0.228972
0.264500 0.228853
0.264750 0.228744
0.265000 0.228645
0.265250 0.228557
0.265500 0.228479
0.265750 0.228412
0.266000 0.228356
0.266250 0.228310
0.266500 0.228274
0.266750 0.228250
0.267000 0.228235
0.267250 0.228231
0.267500 0.228237
0.267750 0.228253
0.268000 0.228278
0.268250 0.228313
0.268500 0.228357
0.268750 0.228410
0.269000 0.228471
0.269250 0.228541
0.269500 0.228619
0.269750 0.228705
0.270000 0.228798
0.270250 0.228898
0.270500 0.229006
0.270750 0.229120
0.271000 0.229240
0.271250 0.229366
0.271500 0.229498
0.271750 0.229635
0.272000 0.229778
0.272250 0.229925
0.272500 0.230078
0.272750 0.230234
0.273000 0.230395
0.273250 0.230559
0.273500 0.230728
0.273750 0.230899
0.274000 0.231074
0.274250 0.231252
0.274500 0.231433
0.274750 0.231617
0.275000 0.231803
0.275250 0.231991
